|6.6.6
Archiving\03_Data\eqLP/QFM_m5/ALH/ALH_6.tab                               
           1
T(K)    
  0.000000000000000E+000
  0.000000000000000E+000
           0
           3
T(K)           P(bar)         rho,kg/m3     
  2000.00        500.000        6634.58     
  1996.79        500.000        6637.27     
  1993.59        500.000        6639.96     
  1990.38        500.000        6642.64     
  1987.18        500.000        6645.31     
  1983.97        500.000        6647.97     
  1980.77        500.000        6650.63     
  1977.56        500.000        6653.28     
  1974.36        500.000        6655.93     
  1971.15        500.000        6658.53     
  1967.95        500.000        6661.12     
  1964.74        500.000        6663.71     
  1961.54        500.000        6666.29     
  1958.33        500.000        6668.86     
  1955.13        500.000        6671.43     
  1951.92        500.000        6673.99     
  1948.72        500.000        6676.54     
  1945.51        500.000        6679.05     
  1942.31        500.000        6681.56     
  1939.10        500.000        6684.06     
  1935.90        500.000        6686.55     
  1932.69        500.000        6689.04     
  1929.49        500.000        6691.53     
  1926.28        500.000        6694.00     
  1923.08        500.000        6696.47     
  1919.87        500.000        6698.91     
  1916.67        500.000        6701.33     
  1913.46        500.000        6703.75     
  1910.26        500.000        6706.17     
  1907.05        500.000        6708.58     
  1903.85        500.000        6710.98     
  1900.64        500.000        6713.38     
  1897.44        500.000        6715.77     
  1894.23        500.000        6718.13     
  1891.03        500.000        6720.48     
  1887.82        500.000        6722.83     
  1884.62        500.000        6725.17     
  1881.41        500.000        6727.51     
  1878.21        500.000        6729.84     
  1875.00        500.000        6732.17     
  1871.79        500.000        6734.49     
  1868.59        500.000        6736.79     
  1865.38        500.000        6739.08     
  1862.18        500.000        6741.36     
  1858.97        500.000        6444.17     
  1855.77        500.000        6120.87     
  1852.56        500.000        5855.07     
  1849.36        500.000        5632.72     
  1846.15        500.000        5443.97     
  1842.95        500.000        5288.84     
  1839.74        500.000        5153.25     
  1836.54        500.000        5033.73     
  1833.33        500.000        4927.59     
  1830.13        500.000        4832.72     
  1826.92        500.000        4747.41     
  1823.72        500.000        4670.29     
  1820.51        500.000        4600.25     
  1817.31        500.000        4538.92     
  1814.10        500.000        4482.54     
  1810.90        500.000        4430.54     
  1807.69        500.000        4382.43     
  1804.49        500.000        4337.79     
  1801.28        500.000        4296.27     
  1798.08        500.000        4257.55     
  1794.87        500.000        4221.35     
  1791.67        500.000        4188.01     
  1788.46        500.000        4156.68     
  1785.26        500.000        4127.18     
  1782.05        500.000        4099.36     
  1778.85        500.000        4073.08     
  1775.64        500.000        4048.22     
  1772.44        500.000        4024.67     
  1769.23        500.000        4002.33     
  1766.03        500.000        3981.20     
  1762.82        500.000        3961.11     
  1759.62        500.000        3941.96     
  1756.41        500.000        3923.71     
  1753.21        500.000        3905.87     
  1750.00        500.000        3889.15     
  1746.79        500.000        3873.05     
  1743.59        500.000        3857.66     
  1740.38        500.000        3842.80     
  1737.18        500.000        3828.57     
  1733.97        500.000        3814.94     
  1730.77        500.000        3801.86     
  1727.56        500.000        3789.31     
  1724.36        500.000        3777.26     
  1721.15        500.000        3765.67     
  1717.95        500.000        3754.53     
  1714.74        500.000        3743.48     
  1711.54        500.000        3732.84     
  1708.33        500.000        3722.60     
  1705.13        500.000        3712.73     
  1701.92        500.000        3703.22     
  1698.72        500.000        3694.04     
  1695.51        500.000        3685.18     
  1692.31        500.000        3676.62     
  1689.10        500.000        3668.18     
  1685.90        500.000        3660.01     
  1682.69        500.000        3652.12     
  1679.49        500.000        3644.49     
  1676.28        500.000        3637.10     
  1673.08        500.000        3629.95     
  1669.87        500.000        3623.02     
  1666.67        500.000        3616.31     
  1663.46        500.000        3609.76     
  1660.26        500.000        3603.42     
  1657.05        500.000        3597.26     
  1653.85        500.000        3591.29     
  1650.64        500.000        3585.49     
  1647.44        500.000        3579.85     
  1644.23        500.000        3574.38     
  1641.03        500.000        3569.06     
  1637.82        500.000        3563.97     
  1634.62        500.000        3559.03     
  1631.41        500.000        3554.21     
  1628.21        500.000        3549.52     
  1625.00        500.000        3544.96     
  1621.79        500.000        3540.51     
  1618.59        500.000        3536.18     
  1615.38        500.000        3531.95     
  1612.18        500.000        3528.02     
  1608.97        500.000        3524.17     
  1605.77        500.000        3520.42     
  1602.56        500.000        3516.76     
  1599.36        500.000        3513.18     
  1596.15        500.000        3509.68     
  1592.95        500.000        3506.26     
  1589.74        500.000        3502.92     
  1586.54        500.000        3498.66     
  1583.33        500.000        3493.52     
  1580.13        500.000        3488.81     
  1576.92        500.000        3484.28     
  1573.72        500.000        3480.34     
  1570.51        500.000        3476.52     
  1567.31        500.000        3472.83     
  1564.10        500.000        3469.26     
  1560.90        500.000        3466.35     
  1557.69        500.000        3463.51     
  1554.49        500.000        3460.75     
  1551.28        500.000        3458.06     
  1548.08        500.000        3455.44     
  1544.87        500.000        3452.89     
  1541.67        500.000        3450.41     
  1538.46        500.000        3447.99     
  1535.26        500.000        3446.04     
  1532.05        500.000        3444.13     
  1528.85        500.000        3442.27     
  1525.64        500.000        3440.44     
  1522.44        500.000        3438.65     
  1519.23        500.000        3436.90     
  1516.03        500.000        3435.19     
  1512.82        500.000        3433.52     
  1509.62        500.000        3432.04     
  1506.41        500.000        3430.59     
  1503.21        500.000        3429.17     
  1500.00        500.000        3427.78     
  1496.79        500.000        3426.46     
  1493.59        500.000        3425.17     
  1490.38        500.000        3423.92     
  1487.18        500.000        3422.06     
  1483.97        500.000        3420.30     
  1480.77        500.000        3418.58     
  1477.56        500.000        3416.95     
  1474.36        500.000        3415.21     
  1471.15        500.000        3415.67     
  1467.95        500.000        3416.13     
  1464.74        500.000        3416.60     
  1461.54        500.000        3409.52     
  1458.33        500.000        3409.98     
  1455.13        500.000        3410.43     
  1451.92        500.000        3410.89     
  1448.72        500.000        3411.35     
  1445.51        500.000        3411.81     
  1442.31        500.000        3412.27     
  1439.10        500.000        3412.72     
  1435.90        500.000        3401.63     
  1432.69        500.000        3402.08     
  1429.49        500.000        3402.53     
  1426.28        500.000        3402.98     
  1423.08        500.000        3398.47     
  1419.87        500.000        3396.14     
  1416.67        500.000        3392.63     
  1413.46        500.000        3393.07     
  1410.26        500.000        3386.42     
  1407.05        500.000        3384.03     
  1403.85        500.000        3382.40     
  1400.64        500.000        3382.84     
  1397.44        500.000        3379.57     
  1394.23        500.000        3380.01     
  1391.03        500.000        3380.45     
  1387.82        500.000        3380.89     
  1384.62        500.000        3375.19     
  1381.41        500.000        3374.25     
  1378.21        500.000        3373.42     
  1375.00        500.000        3373.86     
  1371.79        500.000        3371.91     
  1368.59        500.000        3372.34     
  1365.38        500.000        3372.78     
  1362.18        500.000        3373.21     
  1358.97        500.000        3369.35     
  1355.77        500.000        3369.78     
  1352.56        500.000        3370.21     
  1349.36        500.000        3370.64     
  1346.15        500.000        3371.07     
  1342.95        500.000        3371.50     
  1339.74        500.000        3371.93     
  1336.54        500.000        3372.36     
  1333.33        500.000        3365.44     
  1330.13        500.000        3365.87     
  1326.92        500.000        3366.29     
  1323.72        500.000        3366.72     
  1320.51        500.000        3367.14     
  1317.31        500.000        3367.57     
  1314.10        500.000        3367.99     
  1310.90        500.000        3368.42     
  1307.69        500.000        3362.64     
  1304.49        500.000        3362.34     
  1301.28        500.000        3345.71     
  1298.08        500.000        3346.06     
  1294.87        500.000        3346.44     
  1291.67        500.000        3346.86     
  1288.46        500.000        3347.27     
  1285.26        500.000        3347.69     
  1282.05        500.000        3347.99     
  1278.85        500.000        3348.41     
  1275.64        500.000        3348.82     
  1272.44        500.000        3349.24     
  1269.23        500.000        3349.65     
  1266.03        500.000        3350.07     
  1262.82        500.000        3350.48     
  1259.62        500.000        3350.90     
  1256.41        500.000        3351.12     
  1253.21        500.000        3351.53     
  1250.00        500.000        3351.94     
  1246.79        500.000        3352.35     
  1243.59        500.000        3352.77     
  1240.38        500.000        3353.18     
  1237.18        500.000        3353.59     
  1233.97        500.000        3354.00     
  1230.77        500.000        3354.26     
  1227.56        500.000        3354.67     
  1224.36        500.000        3355.09     
  1221.15        500.000        3355.50     
  1217.95        500.000        3355.91     
  1214.74        500.000        3356.32     
  1211.54        500.000        3356.73     
  1208.33        500.000        3357.14     
  1205.13        500.000        3357.43     
  1201.92        500.000        3357.84     
  1198.72        500.000        3358.25     
  1195.51        500.000        3358.66     
  1192.31        500.000        3359.07     
  1189.10        500.000        3359.47     
  1185.90        500.000        3359.88     
  1182.69        500.000        3360.29     
  1179.49        500.000        3360.61     
  1176.28        500.000        3361.02     
  1173.08        500.000        3361.43     
  1169.87        500.000        3361.83     
  1166.67        500.000        3362.24     
  1163.46        500.000        3362.65     
  1160.26        500.000        3363.05     
  1157.05        500.000        3363.46     
  1153.85        500.000        3363.82     
  1150.64        500.000        3364.23     
  1147.44        500.000        3364.63     
  1144.23        500.000        3365.04     
  1141.03        500.000        3365.44     
  1137.82        500.000        3365.85     
  1134.62        500.000        3366.25     
  1131.41        500.000        3366.66     
  1128.21        500.000        3367.04     
  1125.00        500.000        3367.45     
  1121.79        500.000        3367.85     
  1118.59        500.000        3368.25     
  1115.38        500.000        3368.66     
  1112.18        500.000        3369.06     
  1108.97        500.000        3369.46     
  1105.77        500.000        3369.86     
  1102.56        500.000        3370.28     
  1099.36        500.000        3370.68     
  1096.15        500.000        3371.08     
  1092.95        500.000        3371.49     
  1089.74        500.000        3371.89     
  1086.54        500.000        3372.29     
  1083.33        500.000        3372.69     
  1080.13        500.000        3373.09     
  1076.92        500.000        3373.53     
  1073.72        500.000        3373.94     
  1070.51        500.000        3374.34     
  1067.31        500.000        3374.74     
  1064.10        500.000        3375.15     
  1060.90        500.000        3375.55     
  1057.69        500.000        3375.95     
  1054.49        500.000        3376.35     
  1051.28        500.000        3376.77     
  1048.08        500.000        3377.17     
  1044.87        500.000        3377.57     
  1041.67        500.000        3377.97     
  1038.46        500.000        3378.37     
  1035.26        500.000        3378.77     
  1032.05        500.000        3379.17     
  1028.85        500.000        3379.56     
  1025.64        500.000        3380.03     
  1022.44        500.000        3380.42     
  1019.23        500.000        3380.82     
  1016.03        500.000        3381.22     
  1012.82        500.000        3381.62     
  1009.62        500.000        3382.01     
  1006.41        500.000        3382.41     
  1003.21        500.000        3382.81     
  1000.00        500.000        3383.28     
