|6.6.6
Archiving\03_Data\eqfracLP/QFM_m2.25/EETA/EETA_6.tab                      
           1
T(K)    
  0.000000000000000E+000
  0.000000000000000E+000
           0
           3
T(K)           P(bar)         rho,kg/m3     
  1423.08        500.000        3305.92     
  1422.02        500.000        3302.78     
  1420.96        500.000        3302.09     
  1419.90        500.000        3303.43     
  1418.84        500.000        3304.32     
  1417.78        500.000        3305.22     
  1416.72        500.000        3306.14     
  1415.66        500.000        3307.08     
  1414.60        500.000        3308.32     
  1413.54        500.000        3129.84     
  1412.48        500.000        3125.06     
  1411.42        500.000        3126.07     
  1410.36        500.000        3127.63     
  1409.30        500.000        3128.36     
  1408.24        500.000        3129.98     
  1407.17        500.000        3130.75     
  1406.11        500.000        3131.70     
  1405.05        500.000        3132.87     
  1403.99        500.000        3137.44     
  1402.93        500.000        3142.68     
  1401.87        500.000        3144.58     
  1400.81        500.000        3145.27     
  1399.75        500.000        3146.58     
  1398.69        500.000        3148.71     
  1397.63        500.000        3149.26     
  1396.57        500.000        3151.10     
  1395.51        500.000        3152.48     
  1394.45        500.000        3153.53     
  1393.39        500.000        3154.96     
  1392.33        500.000        3156.50     
  1391.27        500.000        3157.79     
  1390.21        500.000        3159.14     
  1389.15        500.000        3160.66     
  1388.09        500.000        3162.20     
  1387.03        500.000        3163.71     
  1385.97        500.000        3164.95     
  1384.91        500.000        3166.26     
  1383.85        500.000        3167.82     
  1382.79        500.000        3169.02     
  1381.73        500.000        3170.62     
  1380.67        500.000        3172.50     
  1379.61        500.000        3173.78     
  1378.55        500.000        3175.05     
  1377.48        500.000        3176.62     
  1376.42        500.000        3178.04     
  1375.36        500.000        3179.48     
  1374.30        500.000        3180.94     
  1373.24        500.000        3182.37     
  1372.18        500.000        3183.83     
  1371.12        500.000        3185.31     
  1370.06        500.000        3186.88     
  1369.00        500.000        3188.34     
  1367.94        500.000        3189.47     
  1366.88        500.000        3191.83     
  1365.82        500.000        3192.79     
  1364.76        500.000        3194.29     
  1363.70        500.000        3195.71     
  1362.64        500.000        3197.26     
  1361.58        500.000        3198.77     
  1360.52        500.000        3200.16     
  1359.46        500.000        3201.44     
  1358.40        500.000        3203.22     
  1357.34        500.000        3204.63     
  1356.28        500.000        3206.04     
  1355.22        500.000        3207.68     
  1354.16        500.000        3209.07     
  1353.10        500.000        3210.56     
  1352.04        500.000        3212.12     
  1350.98        500.000        3213.96     
  1349.92        500.000        3215.01     
  1348.86        500.000        3215.58     
  1347.80        500.000        3218.21     
  1346.73        500.000        3219.33     
  1345.67        500.000        3220.79     
  1344.61        500.000        3222.23     
  1343.55        500.000        3223.59     
  1342.49        500.000        3224.97     
  1341.43        500.000        3229.17     
  1340.37        500.000        3225.16     
  1339.31        500.000        3232.25     
  1338.25        500.000        3230.89     
  1337.19        500.000        3231.96     
  1336.13        500.000        3233.57     
  1335.07        500.000        3234.37     
  1334.01        500.000        3236.08     
  1332.95        500.000        3237.54     
  1331.89        500.000        3238.75     
  1330.83        500.000        3240.04     
  1329.77        500.000        3241.46     
  1328.71        500.000        3242.76     
  1327.65        500.000        3243.78     
  1326.59        500.000        3245.27     
  1325.53        500.000        3246.41     
  1324.47        500.000        3247.75     
  1323.41        500.000        3248.79     
  1322.35        500.000        3249.94     
  1321.29        500.000        3251.33     
  1320.23        500.000        3252.66     
  1319.17        500.000        3244.33     
  1318.11        500.000        3265.70     
  1317.04        500.000        3256.62     
  1315.98        500.000        3256.54     
  1314.92        500.000        3257.87     
  1313.86        500.000        3258.94     
  1312.80        500.000        3259.83     
  1311.74        500.000        3260.79     
  1310.68        500.000        3261.81     
  1309.62        500.000        3262.53     
  1308.56        500.000        3263.66     
  1307.50        500.000        3264.50     
  1306.44        500.000        3265.28     
  1305.38        500.000        3266.29     
  1304.32        500.000        3266.96     
  1303.26        500.000        3267.80     
  1302.20        500.000        3269.28     
  1301.14        500.000        3268.63     
  1300.08        500.000        3269.94     
  1299.02        500.000        3271.20     
  1297.96        500.000        3270.86     
  1296.90        500.000        3271.86     
  1295.84        500.000        3272.45     
  1294.78        500.000        3272.98     
  1293.72        500.000        3273.49     
  1292.66        500.000        3273.98     
  1291.60        500.000        3274.30     
  1290.54        500.000        3274.89     
  1289.48        500.000        3275.16     
  1288.42        500.000        3275.21     
  1287.36        500.000        3276.04     
  1286.29        500.000        3276.07     
  1285.23        500.000        3276.41     
  1284.17        500.000        3276.40     
  1283.11        500.000        3276.67     
  1282.05        500.000        3277.75     
  1280.99        500.000        3275.67     
  1279.93        500.000        3003.80     
  1278.87        500.000        2801.23     
  1277.81        500.000        2804.39     
  1276.75        500.000        2807.12     
  1275.69        500.000        2809.44     
  1274.63        500.000        2812.88     
  1273.57        500.000        2815.16     
  1272.51        500.000        2824.21     
  1271.45        500.000        2834.98     
  1270.39        500.000        2837.29     
  1269.33        500.000        2839.45     
  1268.27        500.000        2844.09     
  1267.21        500.000        2846.77     
  1266.15        500.000        2849.30     
  1265.09        500.000        2850.12     
  1264.03        500.000        2851.25     
  1262.97        500.000        2852.95     
  1261.91        500.000        2854.47     
  1260.85        500.000        2855.68     
  1259.79        500.000        2856.68     
  1258.73        500.000        2857.53     
  1257.67        500.000        2859.84     
  1256.60        500.000        2860.43     
  1255.54        500.000        2861.34     
  1254.48        500.000        2862.05     
  1253.42        500.000        2862.75     
  1252.36        500.000        2863.97     
  1251.30        500.000        2865.24     
  1250.24        500.000        2865.53     
  1249.18        500.000        2866.01     
  1248.12        500.000        2867.04     
  1247.06        500.000        2867.70     
  1246.00        500.000        2868.31     
  1244.94        500.000        2868.78     
  1243.88        500.000        2869.55     
  1242.82        500.000        2870.00     
  1241.76        500.000        2870.12     
  1240.70        500.000        2870.44     
  1239.64        500.000        2871.05     
  1238.58        500.000        2871.24     
  1237.52        500.000        2871.73     
  1236.46        500.000        2871.92     
  1235.40        500.000        2871.64     
  1234.34        500.000        2872.06     
  1233.28        500.000        2871.77     
  1232.22        500.000        2872.11     
  1231.16        500.000        2871.64     
  1230.10        500.000        2872.51     
  1229.04        500.000        2872.32     
  1227.98        500.000        2872.36     
  1226.92        500.000        2871.19     
  1225.85        500.000        2872.41     
  1224.79        500.000        2872.30     
  1223.73        500.000        2872.85     
  1222.67        500.000        2872.75     
  1221.61        500.000        2872.84     
  1220.55        500.000        2873.11     
  1219.49        500.000        2871.96     
  1218.43        500.000        2873.03     
  1217.37        500.000        2872.88     
  1216.31        500.000        2873.13     
  1215.25        500.000        2871.96     
  1214.19        500.000        2871.59     
  1213.13        500.000        2872.01     
  1212.07        500.000        2870.88     
  1211.01        500.000        2865.35     
  1209.95        500.000        2696.83     
  1208.89        500.000        2897.25     
  1207.83        500.000        2640.85     
  1206.77        500.000        2690.43     
  1205.71        500.000        2681.63     
  1204.65        500.000        2674.80     
  1203.59        500.000        3005.21     
  1202.53        500.000        2717.84     
  1201.47        500.000        2685.28     
  1200.41        500.000        2895.35     
  1199.35        500.000        2927.00     
  1198.29        500.000        2848.06     
  1197.23        500.000        2665.29     
  1196.16        500.000        3399.74     
  1195.10        500.000        2644.14     
  1194.04        500.000        3259.95     
  1192.98        500.000        2923.92     
  1191.92        500.000        2695.65     
  1190.86        500.000        2659.24     
  1189.80        500.000        2618.84     
  1188.74        500.000        2637.20     
  1187.68        500.000        2632.98     
  1186.62        500.000        2633.01     
  1185.56        500.000        2633.03     
  1184.50        500.000        2633.06     
  1183.44        500.000        2633.09     
  1182.38        500.000        2633.12     
  1181.32        500.000        2633.14     
  1180.26        500.000        2633.17     
  1179.20        500.000        2635.98     
  1178.14        500.000        2636.03     
  1177.08        500.000        2633.25     
  1176.02        500.000        2636.12     
  1174.96        500.000        2633.36     
  1173.90        500.000        2636.22     
  1172.84        500.000        2636.27     
  1171.78        500.000        2636.31     
  1170.72        500.000        2636.36     
  1169.66        500.000        2636.41     
  1168.60        500.000        2636.45     
  1167.54        500.000        2633.51     
  1166.48        500.000        2633.54     
  1165.41        500.000        2636.60     
  1164.35        500.000        2636.67     
  1163.29        500.000        2636.72     
  1162.23        500.000        2636.73     
  1161.17        500.000        2633.79     
  1160.11        500.000        2633.82     
  1159.05        500.000        2636.93     
  1157.99        500.000        2634.38     
  1156.93        500.000        2637.03     
  1155.87        500.000        2637.07     
  1154.81        500.000        2637.11     
  1153.75        500.000        2637.17     
  1152.69        500.000        2633.88     
  1151.63        500.000        2637.15     
  1150.57        500.000        2637.30     
  1149.51        500.000        2637.35     
  1148.45        500.000        2637.38     
  1147.39        500.000        2637.44     
  1146.33        500.000        2637.48     
  1145.27        500.000        2637.54     
  1144.21        500.000        2637.60     
  1143.15        500.000        2637.65     
  1142.09        500.000        2637.69     
  1141.03        500.000        2637.74     
  1139.97        500.000        2637.79     
  1138.91        500.000        2637.82     
  1137.85        500.000        2637.89     
  1136.79        500.000        2637.90     
  1135.72        500.000        2637.94     
  1134.66        500.000        2637.96     
  1133.60        500.000        2638.01     
  1132.54        500.000        2638.08     
  1131.48        500.000        2638.13     
  1130.42        500.000        2638.17     
  1129.36        500.000        2638.23     
  1128.30        500.000        2638.27     
  1127.24        500.000        2638.33     
  1126.18        500.000        2636.24     
  1125.12        500.000        2636.18     
  1124.06        500.000        2636.09     
  1123.00        500.000        2634.80     
  1121.94        500.000        2634.81     
  1120.88        500.000        2634.84     
  1119.82        500.000        2634.88     
  1118.76        500.000        2634.91     
  1117.70        500.000        2634.91     
  1116.64        500.000        2634.94     
  1115.58        500.000        2634.98     
  1114.52        500.000        2635.01     
  1113.46        500.000        2635.04     
  1112.40        500.000        2635.08     
  1111.34        500.000        2635.11     
  1110.28        500.000        2635.15     
  1109.22        500.000        2635.18     
  1108.16        500.000        2635.21     
  1107.10        500.000        2635.25     
  1106.04        500.000        2636.00     
  1104.97        500.000        2635.38     
  1103.91        500.000        2635.41     
  1102.85        500.000        2635.45     
  1101.79        500.000        2635.48     
  1100.73        500.000        2635.52     
  1099.67        500.000        2635.55     
  1098.61        500.000        2636.14     
  1097.55        500.000        2636.13     
  1096.49        500.000        2636.14     
  1095.43        500.000        2636.18     
  1094.37        500.000        2636.20     
  1093.31        500.000        2636.23     
  1092.25        500.000        2636.25     
  1091.19        500.000        2636.27     
  1090.13        500.000        2636.31     
  1089.07        500.000        2636.33     
  1088.01        500.000        2636.35     
  1086.95        500.000        2636.38     
  1085.89        500.000        2636.40     
  1084.83        500.000        2636.43     
  1083.77        500.000        2636.02     
  1082.71        500.000        2636.48     
  1081.65        500.000        2636.51     
  1080.59        500.000        2636.54     
  1079.53        500.000        2636.57     
  1078.47        500.000        2636.60     
  1077.41        500.000        2636.63     
  1076.35        500.000        2636.66     
  1075.28        500.000        2636.31     
  1074.22        500.000        2636.34     
  1073.16        500.000        2636.38     
  1072.10        500.000        2636.41     
  1071.04        500.000        2636.45     
  1069.98        500.000        2636.49     
  1068.92        500.000        2636.52     
  1067.86        500.000        2636.90     
  1066.80        500.000        2636.93     
  1065.74        500.000        2636.96     
  1064.68        500.000        2636.99     
  1063.62        500.000        2636.71     
  1062.56        500.000        2636.74     
  1061.50        500.000        2636.78     
  1060.44        500.000        2636.81     
  1059.38        500.000        2636.85     
  1058.32        500.000        2636.89     
  1057.26        500.000        2636.92     
  1056.20        500.000        2636.96     
  1055.14        500.000        2637.00     
  1054.08        500.000        2637.03     
  1053.02        500.000        2637.08     
  1051.96        500.000        2637.12     
  1050.90        500.000        2637.15     
  1049.84        500.000        2637.19     
  1048.78        500.000        2637.23     
  1047.72        500.000        2637.26     
  1046.66        500.000        2637.30     
  1045.60        500.000        2637.34     
  1044.53        500.000        2637.37     
  1043.47        500.000        2637.41     
  1042.41        500.000        2637.45     
  1041.35        500.000        2637.48     
  1040.29        500.000        2637.52     
  1039.23        500.000        2637.56     
  1038.17        500.000        2637.59     
  1037.11        500.000        2637.63     
  1036.05        500.000        2637.67     
  1034.99        500.000        2637.71     
  1033.93        500.000        2637.74     
  1032.87        500.000        2637.78     
  1031.81        500.000        2637.82     
  1030.75        500.000        2637.85     
  1029.69        500.000        2637.89     
  1028.63        500.000        2637.93     
  1027.57        500.000        2637.97     
  1026.51        500.000        2638.00     
  1025.45        500.000        2638.04     
  1024.39        500.000        2638.08     
  1023.33        500.000        2638.11     
  1022.27        500.000        2638.15     
  1021.21        500.000        2638.19     
  1020.15        500.000        2638.23     
  1019.09        500.000        2638.26     
  1018.03        500.000        2638.30     
  1016.97        500.000        2638.34     
  1015.91        500.000        2638.38     
  1014.84        500.000        2638.41     
  1013.78        500.000        2638.45     
  1012.72        500.000        2638.49     
  1011.66        500.000        2638.53     
  1010.60        500.000        2638.56     
  1009.54        500.000        2638.60     
  1008.48        500.000        2638.64     
  1007.42        500.000        2638.68     
  1006.36        500.000        2638.71     
  1005.30        500.000        2638.75     
  1004.24        500.000        2638.79     
  1003.18        500.000        2638.83     
  1002.12        500.000        2638.86     
  1001.06        500.000        2638.90     
