|6.6.6
Archiving\03_Data\frac/QFM_m0.5/NWA1068/NWA1068_6.tab                     
           1
T(K)    
  0.000000000000000E+000
  0.000000000000000E+000
           0
           3
T(K)           P(bar)         rho,kg/m3     
  2000.00        2500.00        3681.23     
  1997.49        2500.00        3681.62     
  1994.99        2500.00        3682.00     
  1992.48        2500.00        3682.39     
  1989.97        2500.00        3682.78     
  1987.47        2500.00        3683.16     
  1984.96        2500.00        3683.55     
  1982.46        2500.00        3683.93     
  1979.95        2500.00        3684.32     
  1977.44        2500.00        3684.70     
  1974.94        2500.00        3685.09     
  1972.43        2500.00        3685.47     
  1969.92        2500.00        3685.86     
  1967.42        2500.00        3686.24     
  1964.91        2500.00        3686.63     
  1962.41        2500.00        3687.01     
  1959.90        2500.00        3687.39     
  1957.39        2500.00        3687.78     
  1954.89        2500.00        3688.16     
  1952.38        2500.00        3688.55     
  1949.87        2500.00        3688.93     
  1947.37        2500.00        3689.31     
  1944.86        2500.00        3689.70     
  1942.36        2500.00        3690.08     
  1939.85        2500.00        3690.46     
  1937.34        2500.00        3690.85     
  1934.84        2500.00        3691.23     
  1932.33        2500.00        3691.61     
  1929.82        2500.00        3691.99     
  1927.32        2500.00        3692.38     
  1924.81        2500.00        3692.76     
  1922.31        2500.00        3693.14     
  1919.80        2500.00        3693.52     
  1917.29        2500.00        3693.90     
  1914.79        2500.00        3694.29     
  1912.28        2500.00        3694.67     
  1909.77        2500.00        3695.05     
  1907.27        2500.00        3695.43     
  1904.76        2500.00        3695.81     
  1902.26        2500.00        3696.19     
  1899.75        2500.00        3696.57     
  1897.24        2500.00        3696.95     
  1894.74        2500.00        3697.34     
  1892.23        2500.00        3697.72     
  1889.72        2500.00        3698.10     
  1887.22        2500.00        3698.48     
  1884.71        2500.00        3698.86     
  1882.21        2500.00        3699.24     
  1879.70        2500.00        3699.62     
  1877.19        2500.00        3700.00     
  1874.69        2500.00        3700.38     
  1872.18        2500.00        3700.76     
  1869.67        2500.00        3701.13     
  1867.17        2500.00        3701.51     
  1864.66        2500.00        3701.89     
  1862.16        2500.00        3702.27     
  1859.65        2500.00        3702.65     
  1857.14        2500.00        3703.03     
  1854.64        2500.00        3703.41     
  1852.13        2500.00        3703.79     
  1849.62        2500.00        3704.16     
  1847.12        2500.00        3704.54     
  1844.61        2500.00        3704.92     
  1842.11        2500.00        3705.30     
  1839.60        2500.00        3705.68     
  1837.09        2500.00        3706.05     
  1834.59        2500.00        3706.43     
  1832.08        2500.00        3706.81     
  1829.57        2500.00        3707.19     
  1827.07        2500.00        3707.56     
  1824.56        2500.00        3707.94     
  1822.06        2500.00        3708.32     
  1819.55        2500.00        3708.69     
  1817.04        2500.00        3709.07     
  1814.54        2500.00        3709.45     
  1812.03        2500.00        3709.82     
  1809.52        2500.00        3710.20     
  1807.02        2500.00        3710.58     
  1804.51        2500.00        3710.95     
  1802.01        2500.00        3711.33     
  1799.50        2500.00        3711.70     
  1796.99        2500.00        3712.08     
  1794.49        2500.00        3712.45     
  1791.98        2500.00        3712.83     
  1789.47        2500.00        3589.26     
  1786.97        2500.00        2934.90     
  1784.46        2500.00        2935.44     
  1781.95        2500.00        2935.98     
  1779.45        2500.00        2936.51     
  1776.94        2500.00        2937.05     
  1774.44        2500.00        2937.59     
  1771.93        2500.00        2938.12     
  1769.42        2500.00        2938.66     
  1766.92        2500.00        2939.20     
  1764.41        2500.00        2939.73     
  1761.90        2500.00        2940.27     
  1759.40        2500.00        2940.81     
  1756.89        2500.00        2941.34     
  1754.39        2500.00        2941.88     
  1751.88        2500.00        2942.41     
  1749.37        2500.00        2942.95     
  1746.87        2500.00        2943.49     
  1744.36        2500.00        2944.02     
  1741.85        2500.00        2944.56     
  1739.35        2500.00        2945.10     
  1736.84        2500.00        2945.63     
  1734.34        2500.00        2946.17     
  1731.83        2500.00        2946.70     
  1729.32        2500.00        2947.24     
  1726.82        2500.00        2947.78     
  1724.31        2500.00        2948.31     
  1721.80        2500.00        2948.85     
  1719.30        2500.00        2949.39     
  1716.79        2500.00        4505.12     
  1714.29        2500.00        2950.40     
  1711.78        2500.00        2950.94     
  1709.27        2500.00        2951.47     
  1706.77        2500.00        2952.01     
  1704.26        2500.00        2952.55     
  1701.75        2500.00        4509.72     
  1699.25        2500.00        4509.28     
  1696.74        2500.00        4510.12     
  1694.24        2500.00        4510.00     
  1691.73        2500.00        4509.63     
  1689.22        2500.00        4510.08     
  1686.72        2500.00        4512.03     
  1684.21        2500.00        4511.70     
  1681.70        2500.00        4511.99     
  1679.20        2500.00        4512.39     
  1676.69        2500.00        4512.45     
  1674.19        2500.00        4513.51     
  1671.68        2500.00        4513.16     
  1669.17        2500.00        4513.38     
  1666.67        2500.00        4514.69     
  1664.16        2500.00        4514.58     
  1661.65        2500.00        4515.93     
  1659.15        2500.00        4515.26     
  1656.64        2500.00        4515.86     
  1654.14        2500.00        4515.68     
  1651.63        2500.00        4518.13     
  1649.12        2500.00        4517.23     
  1646.62        2500.00        4517.96     
  1644.11        2500.00        4518.61     
  1641.60        2500.00        4518.42     
  1639.10        2500.00        4518.61     
  1636.59        2500.00        3372.91     
  1634.09        2500.00        3402.85     
  1631.58        2500.00        3392.93     
  1629.07        2500.00        3393.62     
  1626.57        2500.00        3397.72     
  1624.06        2500.00        3398.96     
  1621.55        2500.00        3401.46     
  1619.05        2500.00        3403.20     
  1616.54        2500.00        3405.56     
  1614.04        2500.00        3408.28     
  1611.53        2500.00        3411.23     
  1609.02        2500.00        3412.48     
  1606.52        2500.00        3415.63     
  1604.01        2500.00        3417.29     
  1601.50        2500.00        3419.34     
  1599.00        2500.00        3421.99     
  1596.49        2500.00        3423.98     
  1593.98        2500.00        3426.33     
  1591.48        2500.00        3428.11     
  1588.97        2500.00        3430.69     
  1586.47        2500.00        3432.59     
  1583.96        2500.00        3435.13     
  1581.45        2500.00        3437.58     
  1578.95        2500.00        3454.73     
  1576.44        2500.00        3439.82     
  1573.93        2500.00        3444.44     
  1571.43        2500.00        3445.79     
  1568.92        2500.00        3448.40     
  1566.42        2500.00        3450.73     
  1563.91        2500.00        3452.94     
  1561.40        2500.00        3454.25     
  1558.90        2500.00        3457.14     
  1556.39        2500.00        3460.62     
  1553.88        2500.00        3462.63     
  1551.38        2500.00        3465.10     
  1548.87        2500.00        3466.43     
  1546.37        2500.00        3468.11     
  1543.86        2500.00        3470.69     
  1541.35        2500.00        3473.03     
  1538.85        2500.00        3474.96     
  1536.34        2500.00        3477.98     
  1533.83        2500.00        3480.69     
  1531.33        2500.00        3482.77     
  1528.82        2500.00        3485.37     
  1526.32        2500.00        3485.92     
  1523.81        2500.00        3489.32     
  1521.30        2500.00        3490.36     
  1518.80        2500.00        3493.30     
  1516.29        2500.00        3341.02     
  1513.78        2500.00        3332.03     
  1511.28        2500.00        3333.62     
  1508.77        2500.00        3334.61     
  1506.27        2500.00        3336.06     
  1503.76        2500.00        3336.21     
  1501.25        2500.00        3336.83     
  1498.75        2500.00        3329.67     
  1496.24        2500.00        3302.36     
  1493.73        2500.00        3302.76     
  1491.23        2500.00        3303.73     
  1488.72        2500.00        3306.14     
  1486.22        2500.00        3305.95     
  1483.71        2500.00        3289.72     
  1481.20        2500.00        3292.76     
  1478.70        2500.00        3312.00     
  1476.19        2500.00        3318.58     
  1473.68        2500.00        3320.89     
  1471.18        2500.00        3323.12     
  1468.67        2500.00        3325.14     
  1466.17        2500.00        3327.16     
  1463.66        2500.00        3329.32     
  1461.15        2500.00        3331.44     
  1458.65        2500.00        3333.67     
  1456.14        2500.00        3335.88     
  1453.63        2500.00        3337.93     
  1451.13        2500.00        3339.98     
  1448.62        2500.00        3341.98     
  1446.12        2500.00        3344.35     
  1443.61        2500.00        3346.71     
  1441.10        2500.00        3349.05     
  1438.60        2500.00        3351.15     
  1436.09        2500.00        3353.68     
  1433.58        2500.00        3355.84     
  1431.08        2500.00        3358.02     
  1428.57        2500.00        3360.25     
  1426.07        2500.00        3362.37     
  1423.56        2500.00        3364.73     
  1421.05        2500.00        3367.14     
  1418.55        2500.00        3369.44     
  1416.04        2500.00        3371.76     
  1413.53        2500.00        3374.00     
  1411.03        2500.00        3376.50     
  1408.52        2500.00        3378.68     
  1406.02        2500.00        3380.83     
  1403.51        2500.00        3383.39     
  1401.00        2500.00        3385.55     
  1398.50        2500.00        3387.99     
  1395.99        2500.00        3390.48     
  1393.48        2500.00        3392.94     
  1390.98        2500.00        3225.33     
  1388.47        2500.00        3223.02     
  1385.96        2500.00        3227.55     
  1383.46        2500.00        3231.95     
  1380.95        2500.00        3236.14     
  1378.45        2500.00        3240.60     
  1375.94        2500.00        3245.28     
  1373.43        2500.00        3249.41     
  1370.93        2500.00        3254.21     
  1368.42        2500.00        3257.66     
  1365.91        2500.00        3262.69     
  1363.41        2500.00        3266.69     
  1360.90        2500.00        3271.08     
  1358.40        2500.00        3275.28     
  1355.89        2500.00        3279.44     
  1353.38        2500.00        3296.29     
  1350.88        2500.00        3341.86     
  1348.37        2500.00        3358.41     
  1345.86        2500.00        3368.34     
  1343.36        2500.00        3374.46     
  1340.85        2500.00        3378.48     
  1338.35        2500.00        3381.02     
  1335.84        2500.00        3382.96     
  1333.33        2500.00        3384.49     
  1330.83        2500.00        3385.94     
  1328.32        2500.00        3386.62     
  1325.81        2500.00        3387.66     
  1323.31        2500.00        3388.26     
  1320.80        2500.00        3388.76     
  1318.30        2500.00        3389.24     
  1315.79        2500.00        3389.41     
  1313.28        2500.00        3390.24     
  1310.78        2500.00        3390.57     
  1308.27        2500.00        3390.90     
  1305.76        2500.00        3391.27     
  1303.26        2500.00        3391.42     
  1300.75        2500.00        3391.43     
  1298.25        2500.00        3391.40     
  1295.74        2500.00        3391.16     
  1293.23        2500.00        3390.93     
  1290.73        2500.00        3317.73     
  1288.22        2500.00        2881.53     
  1285.71        2500.00        2881.78     
  1283.21        2500.00        2881.96     
  1280.70        2500.00        2881.93     
  1278.20        2500.00        2881.91     
  1275.69        2500.00        2881.54     
  1273.18        2500.00        2880.41     
  1270.68        2500.00        2880.41     
  1268.17        2500.00        2878.38     
  1265.66        2500.00        2883.57     
  1263.16        2500.00        2877.93     
  1260.65        2500.00        2870.14     
  1258.15        2500.00        2886.33     
  1255.64        2500.00        2854.93     
  1253.13        2500.00        2862.66     
  1250.63        2500.00        2879.94     
  1248.12        2500.00        2918.19     
  1245.61        2500.00        2801.62     
  1243.11        2500.00        2870.21     
  1240.60        2500.00        2869.00     
  1238.10        2500.00        2856.64     
  1235.59        2500.00        2871.46     
  1233.08        2500.00        2821.38     
  1230.58        2500.00        2860.66     
  1228.07        2500.00        2730.30     
  1225.56        2500.00        3019.08     
  1223.06        2500.00        2709.77     
  1220.55        2500.00        2709.91     
  1218.05        2500.00        2710.05     
  1215.54        2500.00        2710.19     
  1213.03        2500.00        2710.33     
  1210.53        2500.00        2710.47     
  1208.02        2500.00        2710.57     
  1205.51        2500.00        2710.69     
  1203.01        2500.00        2710.71     
  1200.50        2500.00        2710.75     
  1197.99        2500.00        2710.88     
  1195.49        2500.00        2711.01     
  1192.98        2500.00        2711.15     
  1190.48        2500.00        2711.29     
  1187.97        2500.00        2711.43     
  1185.46        2500.00        2711.57     
  1182.96        2500.00        2711.68     
  1180.45        2500.00        2711.82     
  1177.94        2500.00        2711.96     
  1175.44        2500.00        2712.11     
  1172.93        2500.00        2712.25     
  1170.43        2500.00        2712.40     
  1167.92        2500.00        2712.53     
  1165.41        2500.00        2712.67     
  1162.91        2500.00        2712.81     
  1160.40        2500.00        2712.94     
  1157.89        2500.00        2713.08     
  1155.39        2500.00        2713.22     
  1152.88        2500.00        2713.36     
  1150.38        2500.00        2713.50     
  1147.87        2500.00        2713.63     
  1145.36        2500.00        2713.78     
  1142.86        2500.00        2713.92     
  1140.35        2500.00        2714.06     
  1137.84        2500.00        2714.07     
  1135.34        2500.00        2714.20     
  1132.83        2500.00        2714.22     
  1130.33        2500.00        2714.35     
  1127.82        2500.00        2714.57     
  1125.31        2500.00        2714.56     
  1122.81        2500.00        2714.70     
  1120.30        2500.00        2714.95     
  1117.79        2500.00        2715.04     
  1115.29        2500.00        2715.19     
  1112.78        2500.00        2715.32     
  1110.28        2500.00        2715.45     
  1107.77        2500.00        2715.59     
  1105.26        2500.00        2715.73     
  1102.76        2500.00        2715.85     
  1100.25        2500.00        2715.98     
  1097.74        2500.00        2716.14     
  1095.24        2500.00        2716.28     
  1092.73        2500.00        2716.36     
  1090.23        2500.00        2716.45     
  1087.72        2500.00        2716.58     
  1085.21        2500.00        2716.69     
  1082.71        2500.00        2716.82     
  1080.20        2500.00        2716.95     
  1077.69        2500.00        2717.09     
  1075.19        2500.00        2717.14     
  1072.68        2500.00        2717.32     
  1070.18        2500.00        2717.45     
  1067.67        2500.00        2717.57     
  1065.16        2500.00        2717.70     
  1062.66        2500.00        2717.83     
  1060.15        2500.00        2717.87     
  1057.64        2500.00        2718.09     
  1055.14        2500.00        2718.23     
  1052.63        2500.00        2718.34     
  1050.13        2500.00        2718.45     
  1047.62        2500.00        2718.58     
  1045.11        2500.00        2718.65     
  1042.61        2500.00        2718.82     
  1040.10        2500.00        2718.95     
  1037.59        2500.00        2719.07     
  1035.09        2500.00        2719.21     
  1032.58        2500.00        2719.32     
  1030.08        2500.00        2719.44     
  1027.57        2500.00        2719.56     
  1025.06        2500.00        2719.69     
  1022.56        2500.00        2719.81     
  1020.05        2500.00        2719.93     
  1017.54        2500.00        2720.06     
  1015.04        2500.00        2720.18     
  1012.53        2500.00        2720.30     
  1010.03        2500.00        2720.39     
  1007.52        2500.00        2720.55     
  1005.01        2500.00        2720.64     
  1002.51        2500.00        2720.79     
  1000.00        2500.00        2720.88     
