|6.6.6
Archiving\03_Data\eqfracLP/QFM/TAY13/TAY13_6.tab                          
           1
T(K)    
  0.000000000000000E+000
  0.000000000000000E+000
           0
           3
T(K)           P(bar)         rho,kg/m3     
  1551.28        500.000        3269.38     
  1549.90        500.000        3252.49     
  1548.52        500.000        3252.86     
  1547.14        500.000        3251.80     
  1545.75        500.000        3254.42     
  1544.37        500.000        3253.97     
  1542.99        500.000        3255.65     
  1541.61        500.000        3255.61     
  1540.23        500.000        3256.06     
  1538.85        500.000        3257.12     
  1537.46        500.000        3256.81     
  1536.08        500.000        3257.19     
  1534.70        500.000        3257.00     
  1533.32        500.000        3258.54     
  1531.94        500.000        3258.38     
  1530.56        500.000        3261.12     
  1529.17        500.000        3259.90     
  1527.79        500.000        3260.64     
  1526.41        500.000        3259.97     
  1525.03        500.000        3261.30     
  1523.65        500.000        3261.49     
  1522.27        500.000        3261.62     
  1520.88        500.000        3262.15     
  1519.50        500.000        3264.48     
  1518.12        500.000        3305.06     
  1516.74        500.000        3262.61     
  1515.36        500.000        3264.73     
  1513.98        500.000        3264.83     
  1512.59        500.000        3264.69     
  1511.21        500.000        3265.24     
  1509.83        500.000        3264.43     
  1508.45        500.000        3266.76     
  1507.07        500.000        3267.14     
  1505.69        500.000        3266.80     
  1504.30        500.000        3268.48     
  1502.92        500.000        3268.04     
  1501.54        500.000        3267.97     
  1500.16        500.000        3268.79     
  1498.78        500.000        3269.04     
  1497.40        500.000        3269.23     
  1496.01        500.000        3270.32     
  1494.63        500.000        3270.05     
  1493.25        500.000        3270.13     
  1491.87        500.000        3271.05     
  1490.49        500.000        3271.31     
  1489.11        500.000        3271.91     
  1487.72        500.000        3280.67     
  1486.34        500.000        3274.64     
  1484.96        500.000        3272.97     
  1483.58        500.000        3272.99     
  1482.20        500.000        3275.00     
  1480.82        500.000        3274.88     
  1479.43        500.000        3275.01     
  1478.05        500.000        3284.10     
  1476.67        500.000        3284.45     
  1475.29        500.000        3276.62     
  1473.91        500.000        3284.38     
  1472.53        500.000        3278.60     
  1471.14        500.000        3278.92     
  1469.76        500.000        3279.58     
  1468.38        500.000        3279.53     
  1467.00        500.000        3280.79     
  1465.62        500.000        3282.32     
  1464.24        500.000        3281.29     
  1462.85        500.000        3282.32     
  1461.47        500.000        3283.05     
  1460.09        500.000        3295.49     
  1458.71        500.000        3283.14     
  1457.33        500.000        3284.36     
  1455.95        500.000        3285.05     
  1454.56        500.000        3285.37     
  1453.18        500.000        3286.42     
  1451.80        500.000        3287.65     
  1450.42        500.000        3287.91     
  1449.04        500.000        3287.69     
  1447.66        500.000        3288.99     
  1446.27        500.000        3289.25     
  1444.89        500.000        3290.04     
  1443.51        500.000        3290.47     
  1442.13        500.000        3291.48     
  1440.75        500.000        3291.66     
  1439.37        500.000        3292.58     
  1437.98        500.000        3271.96     
  1436.60        500.000        3264.92     
  1435.22        500.000        3265.93     
  1433.84        500.000        3267.19     
  1432.46        500.000        3268.32     
  1431.08        500.000        3269.01     
  1429.69        500.000        3270.38     
  1428.31        500.000        3271.20     
  1426.93        500.000        3272.40     
  1425.55        500.000        3273.33     
  1424.17        500.000        3274.50     
  1422.79        500.000        3275.71     
  1421.40        500.000        3276.87     
  1420.02        500.000        3277.90     
  1418.64        500.000        3278.90     
  1417.26        500.000        3280.48     
  1415.88        500.000        3281.07     
  1414.50        500.000        3282.02     
  1413.11        500.000        3283.40     
  1411.73        500.000        3285.08     
  1410.35        500.000        3285.86     
  1408.97        500.000        3286.92     
  1407.59        500.000        3287.99     
  1406.21        500.000        3289.17     
  1404.82        500.000        3290.19     
  1403.44        500.000        3291.35     
  1402.06        500.000        3292.65     
  1400.68        500.000        3119.85     
  1399.30        500.000        3115.43     
  1397.92        500.000        3116.79     
  1396.53        500.000        3118.10     
  1395.15        500.000        3119.26     
  1393.77        500.000        3120.75     
  1392.39        500.000        3121.88     
  1391.01        500.000        3123.20     
  1389.63        500.000        3124.48     
  1388.24        500.000        3125.74     
  1386.86        500.000        3127.11     
  1385.48        500.000        3128.51     
  1384.10        500.000        3134.71     
  1382.72        500.000        3139.30     
  1381.34        500.000        3141.08     
  1379.95        500.000        3142.65     
  1378.57        500.000        3144.31     
  1377.19        500.000        3145.80     
  1375.81        500.000        3147.77     
  1374.43        500.000        3149.26     
  1373.05        500.000        3151.03     
  1371.66        500.000        3153.24     
  1370.28        500.000        3154.55     
  1368.90        500.000        3156.11     
  1367.52        500.000        3169.64     
  1366.14        500.000        3149.92     
  1364.76        500.000        3160.63     
  1363.38        500.000        3161.31     
  1361.99        500.000        3165.14     
  1360.61        500.000        3179.11     
  1359.23        500.000        3181.24     
  1357.85        500.000        3164.14     
  1356.47        500.000        3176.72     
  1355.09        500.000        3187.06     
  1353.70        500.000        3166.16     
  1352.32        500.000        3159.06     
  1350.94        500.000        3172.05     
  1349.56        500.000        3181.00     
  1348.18        500.000        3183.01     
  1346.80        500.000        3184.77     
  1345.41        500.000        3186.56     
  1344.03        500.000        3188.43     
  1342.65        500.000        3190.28     
  1341.27        500.000        3191.79     
  1339.89        500.000        3194.29     
  1338.51        500.000        3195.98     
  1337.12        500.000        3210.39     
  1335.74        500.000        3186.80     
  1334.36        500.000        3201.61     
  1332.98        500.000        3203.44     
  1331.60        500.000        3205.12     
  1330.22        500.000        3207.24     
  1328.83        500.000        3209.05     
  1327.45        500.000        3211.46     
  1326.07        500.000        3212.71     
  1324.69        500.000        3214.55     
  1323.31        500.000        3216.58     
  1321.93        500.000        3218.48     
  1320.54        500.000        3219.96     
  1319.16        500.000        3222.19     
  1317.78        500.000        3223.84     
  1316.40        500.000        3226.01     
  1315.02        500.000        3227.65     
  1313.64        500.000        3229.27     
  1312.25        500.000        3231.09     
  1310.87        500.000        3233.03     
  1309.49        500.000        3234.69     
  1308.11        500.000        3236.60     
  1306.73        500.000        3238.49     
  1305.35        500.000        3239.93     
  1303.96        500.000        3241.78     
  1302.58        500.000        3243.43     
  1301.20        500.000        3245.17     
  1299.82        500.000        3246.71     
  1298.44        500.000        3248.52     
  1297.06        500.000        3250.05     
  1295.67        500.000        3251.60     
  1294.29        500.000        3253.17     
  1292.91        500.000        3254.66     
  1291.53        500.000        3256.17     
  1290.15        500.000        3257.46     
  1288.77        500.000        3259.09     
  1287.38        500.000        3260.51     
  1286.00        500.000        3261.99     
  1284.62        500.000        3262.80     
  1283.24        500.000        3264.53     
  1281.86        500.000        3265.71     
  1280.48        500.000        3267.24     
  1279.09        500.000        3268.83     
  1277.71        500.000        3269.02     
  1276.33        500.000        3270.69     
  1274.95        500.000        3081.29     
  1273.57        500.000        2799.96     
  1272.19        500.000        2814.14     
  1270.80        500.000        2848.79     
  1269.42        500.000        2850.02     
  1268.04        500.000        2851.15     
  1266.66        500.000        2852.25     
  1265.28        500.000        2853.30     
  1263.90        500.000        2854.38     
  1262.51        500.000        2855.37     
  1261.13        500.000        2856.31     
  1259.75        500.000        2857.19     
  1258.37        500.000        2857.94     
  1256.99        500.000        2858.73     
  1255.61        500.000        2859.38     
  1254.22        500.000        2860.03     
  1252.84        500.000        2860.65     
  1251.46        500.000        2861.02     
  1250.08        500.000        2861.33     
  1248.70        500.000        2861.57     
  1247.32        500.000        2861.61     
  1245.93        500.000        2861.94     
  1244.55        500.000        2866.33     
  1243.17        500.000        3619.68     
  1241.79        500.000        2775.65     
  1240.41        500.000        2879.07     
  1239.03        500.000        2859.16     
  1237.64        500.000        2858.68     
  1236.26        500.000        2860.39     
  1234.88        500.000        2862.75     
  1233.50        500.000        2837.26     
  1232.12        500.000        2867.52     
  1230.74        500.000        2881.11     
  1229.35        500.000        2856.90     
  1227.97        500.000        2847.18     
  1226.59        500.000        2725.26     
  1225.21        500.000        2854.34     
  1223.83        500.000        2851.93     
  1222.45        500.000        2836.91     
  1221.06        500.000        2866.02     
  1219.68        500.000        2841.37     
  1218.30        500.000        2846.11     
  1216.92        500.000        2760.37     
  1215.54        500.000        3593.73     
  1214.16        500.000        2843.16     
  1212.77        500.000        2447.06     
  1211.39        500.000        2832.30     
  1210.01        500.000        2785.08     
  1208.63        500.000        3729.94     
  1207.25        500.000        2824.14     
  1205.87        500.000        2812.11     
  1204.48        500.000        2685.88     
  1203.10        500.000        2430.67     
  1201.72        500.000        2698.20     
  1200.34        500.000        2422.37     
  1198.96        500.000        2694.78     
  1197.58        500.000        2660.37     
  1196.19        500.000        2661.56     
  1194.81        500.000        2655.95     
  1193.43        500.000        2646.77     
  1192.05        500.000        2654.61     
  1190.67        500.000        2652.33     
  1189.29        500.000        2647.45     
  1187.90        500.000        2632.65     
  1186.52        500.000        2624.27     
  1185.14        500.000        2620.24     
  1183.76        500.000        2620.31     
  1182.38        500.000        2620.32     
  1181.00        500.000        2620.39     
  1179.62        500.000        2620.51     
  1178.23        500.000        2620.50     
  1176.85        500.000        2620.47     
  1175.47        500.000        2620.52     
  1174.09        500.000        2620.78     
  1172.71        500.000        2620.84     
  1171.33        500.000        2620.91     
  1169.94        500.000        2620.98     
  1168.56        500.000        2621.04     
  1167.18        500.000        2621.11     
  1165.80        500.000        2621.17     
  1164.42        500.000        2621.21     
  1163.04        500.000        2621.31     
  1161.65        500.000        2621.37     
  1160.27        500.000        2621.42     
  1158.89        500.000        2621.49     
  1157.51        500.000        2621.48     
  1156.13        500.000        2621.55     
  1154.75        500.000        2621.70     
  1153.36        500.000        2621.67     
  1151.98        500.000        2621.74     
  1150.60        500.000        2621.80     
  1149.22        500.000        2621.87     
  1147.84        500.000        2621.93     
  1146.46        500.000        2622.02     
  1145.07        500.000        2622.09     
  1143.69        500.000        2622.15     
  1142.31        500.000        2622.21     
  1140.93        500.000        2622.27     
  1139.55        500.000        2622.33     
  1138.17        500.000        2622.39     
  1136.78        500.000        2622.45     
  1135.40        500.000        2622.52     
  1134.02        500.000        2622.58     
  1132.64        500.000        2622.64     
  1131.26        500.000        2622.70     
  1129.88        500.000        2622.76     
  1128.49        500.000        2622.83     
  1127.11        500.000        2622.89     
  1125.73        500.000        2622.95     
  1124.35        500.000        2623.02     
  1122.97        500.000        2623.08     
  1121.59        500.000        2623.15     
  1120.20        500.000        2623.21     
  1118.82        500.000        2623.27     
  1117.44        500.000        2623.34     
  1116.06        500.000        2623.40     
  1114.68        500.000        2623.46     
  1113.30        500.000        2623.52     
  1111.91        500.000        2623.59     
  1110.53        500.000        2623.65     
  1109.15        500.000        2623.72     
  1107.77        500.000        2623.77     
  1106.39        500.000        2623.86     
  1105.01        500.000        2623.97     
  1103.62        500.000        2623.99     
  1102.24        500.000        2624.05     
  1100.86        500.000        2624.12     
  1099.48        500.000        2624.18     
  1098.10        500.000        2624.24     
  1096.72        500.000        2624.31     
  1095.33        500.000        2624.37     
  1093.95        500.000        2624.43     
  1092.57        500.000        2624.47     
  1091.19        500.000        2624.56     
  1089.81        500.000        2624.62     
  1088.43        500.000        2624.68     
  1087.04        500.000        2624.73     
  1085.66        500.000        2624.81     
  1084.28        500.000        2624.83     
  1082.90        500.000        2624.92     
  1081.52        500.000        2624.98     
  1080.14        500.000        2625.04     
  1078.75        500.000        2625.12     
  1077.37        500.000        2625.17     
  1075.99        500.000        2625.23     
  1074.61        500.000        2625.29     
  1073.23        500.000        2625.34     
  1071.85        500.000        2625.40     
  1070.46        500.000        2625.49     
  1069.08        500.000        2625.54     
  1067.70        500.000        2625.66     
  1066.32        500.000        2625.72     
  1064.94        500.000        2625.77     
  1063.56        500.000        2625.83     
  1062.17        500.000        2625.89     
  1060.79        500.000        2625.95     
  1059.41        500.000        2626.00     
  1058.03        500.000        2626.04     
  1056.65        500.000        2626.10     
  1055.27        500.000        2626.52     
  1053.88        500.000        2626.58     
  1052.50        500.000        2626.64     
  1051.12        500.000        2626.70     
  1049.74        500.000        2626.76     
  1048.36        500.000        2626.82     
  1046.98        500.000        2626.87     
  1045.59        500.000        2626.93     
  1044.21        500.000        2626.99     
  1042.83        500.000        2627.05     
  1041.45        500.000        2626.61     
  1040.07        500.000        2627.16     
  1038.69        500.000        2627.23     
  1037.30        500.000        2627.31     
  1035.92        500.000        2627.38     
  1034.54        500.000        2627.46     
  1033.16        500.000        2627.53     
  1031.78        500.000        2627.60     
  1030.40        500.000        2627.68     
  1029.01        500.000        2627.76     
  1027.63        500.000        2627.84     
  1026.25        500.000        2627.92     
  1024.87        500.000        2628.00     
  1023.49        500.000        2628.09     
  1022.11        500.000        2628.17     
  1020.72        500.000        2628.25     
  1019.34        500.000        2628.33     
  1017.96        500.000        2628.41     
  1016.58        500.000        2628.49     
  1015.20        500.000        2628.57     
  1013.82        500.000        2628.65     
  1012.43        500.000        2628.73     
  1011.05        500.000        2628.81     
  1009.67        500.000        2628.89     
  1008.29        500.000        2628.97     
  1006.91        500.000        2629.05     
  1005.53        500.000        2629.13     
  1004.14        500.000        2629.21     
  1002.76        500.000        2629.29     
  1001.38        500.000        2629.37     
  1000.00        500.000        2629.45     
