|6.6.6
Archiving\03_Data\DeqLP/QFM_m1.5/K22/K22_6.tab                        
           1
T(K)    
  0.000000000000000E+000
  0.000000000000000E+000
           0
           3
T(K)           P(bar)         rho,kg/m3     
  2000.00        500.000        8099.88     
  1996.79        500.000        8101.72     
  1993.59        500.000        8103.55     
  1990.38        500.000        8105.38     
  1987.18        500.000        8107.21     
  1983.97        500.000        8109.03     
  1980.77        500.000        8110.86     
  1977.56        500.000        8112.68     
  1974.36        500.000        8114.50     
  1971.15        500.000        8116.32     
  1967.95        500.000        3338.14     
  1964.74        500.000        3172.65     
  1961.54        500.000        3167.13     
  1958.33        500.000        3161.03     
  1955.13        500.000        3156.47     
  1951.92        500.000        3152.96     
  1948.72        500.000        3150.21     
  1945.51        500.000        3146.38     
  1942.31        500.000        3143.94     
  1939.10        500.000        3142.31     
  1935.90        500.000        3141.20     
  1932.69        500.000        3140.43     
  1929.49        500.000        3139.91     
  1926.28        500.000        3139.56     
  1923.08        500.000        3139.34     
  1919.87        500.000        3140.09     
  1916.67        500.000        3140.79     
  1913.46        500.000        3141.44     
  1910.26        500.000        3142.07     
  1907.05        500.000        3143.39     
  1903.85        500.000        3144.59     
  1900.64        500.000        3147.30     
  1897.44        500.000        3149.75     
  1894.23        500.000        3152.77     
  1891.03        500.000        3155.52     
  1887.82        500.000        3158.04     
  1884.62        500.000        3160.37     
  1881.41        500.000        3162.54     
  1878.21        500.000        3164.56     
  1875.00        500.000        3166.45     
  1871.79        500.000        3168.23     
  1868.59        500.000        3170.66     
  1865.38        500.000        3172.95     
  1862.18        500.000        3175.12     
  1858.97        500.000        3177.18     
  1855.77        500.000        3179.14     
  1852.56        500.000        3181.02     
  1849.36        500.000        3182.81     
  1846.15        500.000        3184.52     
  1842.95        500.000        3186.66     
  1839.74        500.000        3188.70     
  1836.54        500.000        3190.67     
  1833.33        500.000        3192.57     
  1830.13        500.000        3194.40     
  1826.92        500.000        3196.17     
  1823.72        500.000        3197.88     
  1820.51        500.000        3199.54     
  1817.31        500.000        3201.50     
  1814.10        500.000        3203.41     
  1810.90        500.000        3205.25     
  1807.69        500.000        3207.05     
  1804.49        500.000        3208.79     
  1801.28        500.000        3210.49     
  1798.08        500.000        3212.15     
  1794.87        500.000        3213.76     
  1791.67        500.000        3215.58     
  1788.46        500.000        3217.36     
  1785.26        500.000        3219.10     
  1782.05        500.000        3220.80     
  1778.85        500.000        3222.46     
  1775.64        500.000        3224.08     
  1772.44        500.000        3225.67     
  1769.23        500.000        3227.22     
  1766.03        500.000        3228.88     
  1762.82        500.000        3230.49     
  1759.62        500.000        3232.08     
  1756.41        500.000        3233.64     
  1753.21        500.000        3235.17     
  1750.00        500.000        3236.67     
  1746.79        500.000        3238.14     
  1743.59        500.000        3239.59     
  1740.38        500.000        3241.08     
  1737.18        500.000        3242.55     
  1733.97        500.000        3243.99     
  1730.77        500.000        3245.41     
  1727.56        500.000        3246.81     
  1724.36        500.000        3248.19     
  1721.15        500.000        3249.55     
  1717.95        500.000        3250.88     
  1714.74        500.000        3252.20     
  1711.54        500.000        3253.51     
  1708.33        500.000        3254.79     
  1705.13        500.000        3256.06     
  1701.92        500.000        3257.31     
  1698.72        500.000        3258.54     
  1695.51        500.000        3259.76     
  1692.31        500.000        3260.97     
  1689.10        500.000        3262.14     
  1685.90        500.000        3263.31     
  1682.69        500.000        3264.45     
  1679.49        500.000        3265.59     
  1676.28        500.000        3266.72     
  1673.08        500.000        3267.83     
  1669.87        500.000        3268.93     
  1666.67        500.000        3270.02     
  1663.46        500.000        3271.04     
  1660.26        500.000        3272.04     
  1657.05        500.000        3273.04     
  1653.85        500.000        3274.04     
  1650.64        500.000        3275.02     
  1647.44        500.000        3275.99     
  1644.23        500.000        3276.96     
  1641.03        500.000        3277.92     
  1637.82        500.000        3278.82     
  1634.62        500.000        3279.71     
  1631.41        500.000        3280.60     
  1628.21        500.000        3281.48     
  1625.00        500.000        3282.34     
  1621.79        500.000        3283.20     
  1618.59        500.000        3284.03     
  1615.38        500.000        3284.07     
  1612.18        500.000        3283.42     
  1608.97        500.000        3282.81     
  1605.77        500.000        3282.23     
  1602.56        500.000        3281.69     
  1599.36        500.000        3281.18     
  1596.15        500.000        3280.70     
  1592.95        500.000        3280.24     
  1589.74        500.000        3279.82     
  1586.54        500.000        3279.68     
  1583.33        500.000        3279.55     
  1580.13        500.000        3279.44     
  1576.92        500.000        3279.34     
  1573.72        500.000        3279.26     
  1570.51        500.000        3279.18     
  1567.31        500.000        3279.11     
  1564.10        500.000        3279.06     
  1560.90        500.000        3279.14     
  1557.69        500.000        3279.23     
  1554.49        500.000        3279.32     
  1551.28        500.000        3279.42     
  1548.08        500.000        3279.52     
  1544.87        500.000        3279.63     
  1541.67        500.000        3279.75     
  1538.46        500.000        3279.87     
  1535.26        500.000        3280.05     
  1532.05        500.000        3280.23     
  1528.85        500.000        3280.42     
  1525.64        500.000        3280.62     
  1522.44        500.000        3280.81     
  1519.23        500.000        3281.01     
  1516.03        500.000        3281.21     
  1512.82        500.000        3281.42     
  1509.62        500.000        3281.66     
  1506.41        500.000        3281.89     
  1503.21        500.000        3282.13     
  1500.00        500.000        3282.38     
  1496.79        500.000        3282.62     
  1493.59        500.000        3282.87     
  1490.38        500.000        3283.12     
  1487.18        500.000        3283.38     
  1483.97        500.000        3283.64     
  1480.77        500.000        3283.90     
  1477.56        500.000        3284.19     
  1474.36        500.000        3284.51     
  1471.15        500.000        3284.88     
  1467.95        500.000        3285.25     
  1464.74        500.000        3285.62     
  1461.54        500.000        3286.00     
  1458.33        500.000        3286.40     
  1455.13        500.000        3286.81     
  1451.92        500.000        3287.22     
  1448.72        500.000        3287.63     
  1445.51        500.000        3288.05     
  1442.31        500.000        3288.44     
  1439.10        500.000        3288.88     
  1435.90        500.000        3289.22     
  1432.69        500.000        3289.66     
  1429.49        500.000        3290.10     
  1426.28        500.000        3290.54     
  1423.08        500.000        3290.81     
  1419.87        500.000        3290.57     
  1416.67        500.000        3289.94     
  1413.46        500.000        3290.38     
  1410.26        500.000        3288.89     
  1407.05        500.000        3289.32     
  1403.85        500.000        3289.76     
  1400.64        500.000        3290.19     
  1397.44        500.000        3290.63     
  1394.23        500.000        3291.06     
  1391.03        500.000        3291.50     
  1387.82        500.000        3291.93     
  1384.62        500.000        3286.42     
  1381.41        500.000        3286.85     
  1378.21        500.000        3287.28     
  1375.00        500.000        3287.71     
  1371.79        500.000        3288.14     
  1368.59        500.000        3288.57     
  1365.38        500.000        3289.00     
  1362.18        500.000        3289.43     
  1358.97        500.000        3285.32     
  1355.77        500.000        3285.75     
  1352.56        500.000        3286.17     
  1349.36        500.000        3286.60     
  1346.15        500.000        3287.02     
  1342.95        500.000        3287.45     
  1339.74        500.000        3287.87     
  1336.54        500.000        3288.30     
  1333.33        500.000        3284.91     
  1330.13        500.000        3285.33     
  1326.92        500.000        3285.75     
  1323.72        500.000        3286.18     
  1320.51        500.000        3286.60     
  1317.31        500.000        3287.02     
  1314.10        500.000        3287.44     
  1310.90        500.000        3287.86     
  1307.69        500.000        3284.97     
  1304.49        500.000        3285.39     
  1301.28        500.000        3285.80     
  1298.08        500.000        3286.22     
  1294.87        500.000        3285.15     
  1291.67        500.000        3285.57     
  1288.46        500.000        3285.28     
  1285.26        500.000        3285.35     
  1282.05        500.000        3283.68     
  1278.85        500.000        3277.16     
  1275.64        500.000        3277.52     
  1272.44        500.000        3277.93     
  1269.23        500.000        3278.22     
  1266.03        500.000        3278.64     
  1262.82        500.000        3279.05     
  1259.62        500.000        3279.46     
  1256.41        500.000        3279.64     
  1253.21        500.000        3280.05     
  1250.00        500.000        3280.46     
  1246.79        500.000        3280.87     
  1243.59        500.000        3281.28     
  1240.38        500.000        3281.69     
  1237.18        500.000        3282.10     
  1233.97        500.000        3282.50     
  1230.77        500.000        3282.49     
  1227.56        500.000        3282.89     
  1224.36        500.000        3283.30     
  1221.15        500.000        3283.71     
  1217.95        500.000        3284.11     
  1214.74        500.000        3284.52     
  1211.54        500.000        3284.93     
  1208.33        500.000        3285.33     
  1205.13        500.000        3285.35     
  1201.92        500.000        3285.75     
  1198.72        500.000        3286.16     
  1195.51        500.000        3286.56     
  1192.31        500.000        3286.97     
  1189.10        500.000        3287.37     
  1185.90        500.000        3287.77     
  1182.69        500.000        3288.18     
  1179.49        500.000        3288.23     
  1176.28        500.000        3288.63     
  1173.08        500.000        3289.04     
  1169.87        500.000        3289.44     
  1166.67        500.000        3289.84     
  1163.46        500.000        3290.24     
  1160.26        500.000        3290.64     
  1157.05        500.000        3291.05     
  1153.85        500.000        3291.12     
  1150.64        500.000        3291.53     
  1147.44        500.000        3291.93     
  1144.23        500.000        3292.33     
  1141.03        500.000        3292.73     
  1137.82        500.000        3293.13     
  1134.62        500.000        3293.53     
  1131.41        500.000        3293.92     
  1128.21        500.000        3294.04     
  1125.00        500.000        3294.44     
  1121.79        500.000        3294.83     
  1118.59        500.000        3295.23     
  1115.38        500.000        3295.63     
  1112.18        500.000        3296.03     
  1108.97        500.000        3296.42     
  1105.77        500.000        3296.82     
  1102.56        500.000        3296.97     
  1099.36        500.000        3297.37     
  1096.15        500.000        3297.76     
  1092.95        500.000        3298.16     
  1089.74        500.000        3298.55     
  1086.54        500.000        3298.95     
  1083.33        500.000        3299.34     
  1080.13        500.000        3299.74     
  1076.92        500.000        3299.91     
  1073.72        500.000        3300.31     
  1070.51        500.000        3300.70     
  1067.31        500.000        3301.10     
  1064.10        500.000        3301.49     
  1060.90        500.000        3301.88     
  1057.69        500.000        3302.28     
  1054.49        500.000        3302.67     
  1051.28        500.000        3302.89     
  1048.08        500.000        3303.28     
  1044.87        500.000        3303.68     
  1041.67        500.000        3304.07     
  1038.46        500.000        3304.46     
  1035.26        500.000        3304.85     
  1032.05        500.000        3305.24     
  1028.85        500.000        3305.63     
  1025.64        500.000        3305.89     
  1022.44        500.000        3306.28     
  1019.23        500.000        3306.67     
  1016.03        500.000        3307.06     
  1012.82        500.000        3307.45     
  1009.62        500.000        3307.84     
  1006.41        500.000        3308.23     
  1003.21        500.000        3308.61     
  1000.00        500.000        3308.91     
