|6.6.6
Archiving\03_Data\frac/QFM_m3.5/KHA22/KHA22_6.tab                         
           1
T(K)    
  0.000000000000000E+000
  0.000000000000000E+000
           0
           3
T(K)           P(bar)         rho,kg/m3     
  2000.00        2500.00        5154.70     
  1997.49        2500.00        5155.46     
  1994.99        2500.00        5156.21     
  1992.48        2500.00        5156.95     
  1989.97        2500.00        5157.70     
  1987.47        2500.00        5158.45     
  1984.96        2500.00        5159.20     
  1982.46        2500.00        5159.95     
  1979.95        2500.00        5160.70     
  1977.44        2500.00        5161.44     
  1974.94        2500.00        5162.19     
  1972.43        2500.00        5162.94     
  1969.92        2500.00        5163.68     
  1967.42        2500.00        5164.43     
  1964.91        2500.00        5165.17     
  1962.41        2500.00        5165.92     
  1959.90        2500.00        5166.66     
  1957.39        2500.00        5167.40     
  1954.89        2500.00        5168.15     
  1952.38        2500.00        5168.89     
  1949.87        2500.00        5169.63     
  1947.37        2500.00        5170.37     
  1944.86        2500.00        5171.12     
  1942.36        2500.00        5171.86     
  1939.85        2500.00        5172.60     
  1937.34        2500.00        5173.34     
  1934.84        2500.00        5174.08     
  1932.33        2500.00        5174.82     
  1929.82        2500.00        5175.56     
  1927.32        2500.00        5176.30     
  1924.81        2500.00        5177.03     
  1922.31        2500.00        3886.13     
  1919.80        2500.00        2905.12     
  1917.29        2500.00        3141.66     
  1914.79        2500.00        3142.77     
  1912.28        2500.00        3144.43     
  1909.77        2500.00        3145.85     
  1907.27        2500.00        3147.21     
  1904.76        2500.00        3148.46     
  1902.26        2500.00        3150.05     
  1899.75        2500.00        3151.62     
  1897.24        2500.00        3153.26     
  1894.74        2500.00        3154.42     
  1892.23        2500.00        3155.99     
  1889.72        2500.00        3157.21     
  1887.22        2500.00        3159.85     
  1884.71        2500.00        3160.40     
  1882.21        2500.00        3160.97     
  1879.70        2500.00        3163.64     
  1877.19        2500.00        3164.55     
  1874.69        2500.00        3176.05     
  1872.18        2500.00        3190.63     
  1869.67        2500.00        3191.63     
  1867.17        2500.00        3193.87     
  1864.66        2500.00        3195.41     
  1862.16        2500.00        3197.16     
  1859.65        2500.00        3198.80     
  1857.14        2500.00        3201.05     
  1854.64        2500.00        3202.38     
  1852.13        2500.00        3203.32     
  1849.62        2500.00        3204.56     
  1847.12        2500.00        3206.13     
  1844.61        2500.00        3207.91     
  1842.11        2500.00        3209.50     
  1839.60        2500.00        3211.57     
  1837.09        2500.00        3212.81     
  1834.59        2500.00        3216.10     
  1832.08        2500.00        3215.36     
  1829.57        2500.00        3217.05     
  1827.07        2500.00        3218.82     
  1824.56        2500.00        3220.21     
  1822.06        2500.00        3221.99     
  1819.55        2500.00        3223.47     
  1817.04        2500.00        3225.29     
  1814.54        2500.00        3226.74     
  1812.03        2500.00        3228.26     
  1809.52        2500.00        3229.90     
  1807.02        2500.00        3231.57     
  1804.51        2500.00        3232.67     
  1802.01        2500.00        3234.83     
  1799.50        2500.00        3236.01     
  1796.99        2500.00        3237.48     
  1794.49        2500.00        3238.92     
  1791.98        2500.00        3240.65     
  1789.47        2500.00        3242.28     
  1786.97        2500.00        3244.50     
  1784.46        2500.00        3245.61     
  1781.95        2500.00        3246.67     
  1779.45        2500.00        3248.78     
  1776.94        2500.00        3250.62     
  1774.44        2500.00        3251.42     
  1771.93        2500.00        3252.71     
  1769.42        2500.00        3254.11     
  1766.92        2500.00        3256.50     
  1764.41        2500.00        3256.77     
  1761.90        2500.00        3259.36     
  1759.40        2500.00        3260.60     
  1756.89        2500.00        3261.90     
  1754.39        2500.00        3264.13     
  1751.88        2500.00        3265.08     
  1749.37        2500.00        3266.08     
  1746.87        2500.00        3268.17     
  1744.36        2500.00        3269.63     
  1741.85        2500.00        3271.69     
  1739.35        2500.00        3272.73     
  1736.84        2500.00        3273.98     
  1734.34        2500.00        3275.59     
  1731.83        2500.00        3277.64     
  1729.32        2500.00        3278.77     
  1726.82        2500.00        3281.68     
  1724.31        2500.00        3281.37     
  1721.80        2500.00        3283.44     
  1719.30        2500.00        3287.08     
  1716.79        2500.00        3284.69     
  1714.29        2500.00        3287.40     
  1711.78        2500.00        3288.58     
  1709.27        2500.00        3290.62     
  1706.77        2500.00        3292.10     
  1704.26        2500.00        3293.18     
  1701.75        2500.00        3294.93     
  1699.25        2500.00        3296.53     
  1696.74        2500.00        3298.45     
  1694.24        2500.00        3298.89     
  1691.73        2500.00        3300.17     
  1689.22        2500.00        3302.29     
  1686.72        2500.00        3303.99     
  1684.21        2500.00        3305.36     
  1681.70        2500.00        3306.22     
  1679.20        2500.00        3307.19     
  1676.69        2500.00        3308.86     
  1674.19        2500.00        3309.03     
  1671.68        2500.00        3312.10     
  1669.17        2500.00        3313.50     
  1666.67        2500.00        3315.01     
  1664.16        2500.00        3316.88     
  1661.65        2500.00        3318.71     
  1659.15        2500.00        2850.16     
  1656.64        2500.00        3317.29     
  1654.14        2500.00        3323.97     
  1651.63        2500.00        3322.90     
  1649.12        2500.00        3324.75     
  1646.62        2500.00        3327.23     
  1644.11        2500.00        3327.97     
  1641.60        2500.00        3327.40     
  1639.10        2500.00        3242.93     
  1636.59        2500.00        3236.40     
  1634.09        2500.00        3237.69     
  1631.58        2500.00        3238.33     
  1629.07        2500.00        3239.00     
  1626.57        2500.00        3239.97     
  1624.06        2500.00        3241.18     
  1621.55        2500.00        3242.24     
  1619.05        2500.00        3242.82     
  1616.54        2500.00        3243.49     
  1614.04        2500.00        3244.88     
  1611.53        2500.00        3245.05     
  1609.02        2500.00        3245.75     
  1606.52        2500.00        3246.94     
  1604.01        2500.00        3248.11     
  1601.50        2500.00        3248.99     
  1599.00        2500.00        3250.31     
  1596.49        2500.00        3250.25     
  1593.98        2500.00        3251.33     
  1591.48        2500.00        3252.46     
  1588.97        2500.00        3253.50     
  1586.47        2500.00        3253.67     
  1583.96        2500.00        3254.10     
  1581.45        2500.00        3255.53     
  1578.95        2500.00        3256.20     
  1576.44        2500.00        3257.15     
  1573.93        2500.00        3257.75     
  1571.43        2500.00        3258.23     
  1568.92        2500.00        3259.27     
  1566.42        2500.00        3259.92     
  1563.91        2500.00        3261.29     
  1561.40        2500.00        3262.33     
  1558.90        2500.00        3262.46     
  1556.39        2500.00        3262.77     
  1553.88        2500.00        3263.80     
  1551.38        2500.00        3264.44     
  1548.87        2500.00        3265.78     
  1546.37        2500.00        3266.64     
  1543.86        2500.00        3266.92     
  1541.35        2500.00        3267.18     
  1538.85        2500.00        3268.38     
  1536.34        2500.00        3269.61     
  1533.83        2500.00        3269.72     
  1531.33        2500.00        3270.84     
  1528.82        2500.00        3269.92     
  1526.32        2500.00        3271.68     
  1523.81        2500.00        3273.44     
  1521.30        2500.00        3273.44     
  1518.80        2500.00        3274.14     
  1516.29        2500.00        3274.78     
  1513.78        2500.00        3275.38     
  1511.28        2500.00        3255.43     
  1508.77        2500.00        3254.82     
  1506.27        2500.00        3256.03     
  1503.76        2500.00        3257.29     
  1501.25        2500.00        3258.22     
  1498.75        2500.00        3260.17     
  1496.24        2500.00        3260.93     
  1493.73        2500.00        3261.99     
  1491.23        2500.00        3266.47     
  1488.72        2500.00        3264.50     
  1486.22        2500.00        3266.46     
  1483.71        2500.00        3267.76     
  1481.20        2500.00        3270.43     
  1478.70        2500.00        3270.46     
  1476.19        2500.00        3271.35     
  1473.68        2500.00        3272.96     
  1471.18        2500.00        3273.56     
  1468.67        2500.00        3275.73     
  1466.17        2500.00        3269.76     
  1463.66        2500.00        3262.44     
  1461.15        2500.00        3264.45     
  1458.65        2500.00        3266.07     
  1456.14        2500.00        3267.54     
  1453.63        2500.00        3269.12     
  1451.13        2500.00        3271.19     
  1448.62        2500.00        3272.82     
  1446.12        2500.00        3274.57     
  1443.61        2500.00        3276.55     
  1441.10        2500.00        3277.90     
  1438.60        2500.00        3280.12     
  1436.09        2500.00        3282.17     
  1433.58        2500.00        3284.02     
  1431.08        2500.00        3285.68     
  1428.57        2500.00        3287.78     
  1426.07        2500.00        3114.07     
  1423.56        2500.00        3104.50     
  1421.05        2500.00        3106.69     
  1418.55        2500.00        3108.68     
  1416.04        2500.00        3114.33     
  1413.53        2500.00        3120.81     
  1411.03        2500.00        3123.80     
  1408.52        2500.00        3126.49     
  1406.02        2500.00        3127.42     
  1403.51        2500.00        3129.64     
  1401.00        2500.00        3132.41     
  1398.50        2500.00        3134.78     
  1395.99        2500.00        3136.82     
  1393.48        2500.00        3138.83     
  1390.98        2500.00        3142.52     
  1388.47        2500.00        3144.10     
  1385.96        2500.00        3146.70     
  1383.46        2500.00        3149.17     
  1380.95        2500.00        3152.04     
  1378.45        2500.00        3154.30     
  1375.94        2500.00        3156.65     
  1373.43        2500.00        3158.86     
  1370.93        2500.00        3161.69     
  1368.42        2500.00        3163.74     
  1365.91        2500.00        3165.93     
  1363.41        2500.00        3168.59     
  1360.90        2500.00        3170.86     
  1358.40        2500.00        3173.19     
  1355.89        2500.00        3177.01     
  1353.38        2500.00        3176.20     
  1350.88        2500.00        3179.91     
  1348.37        2500.00        3182.51     
  1345.86        2500.00        3184.98     
  1343.36        2500.00        3187.00     
  1340.85        2500.00        3189.06     
  1338.35        2500.00        3191.38     
  1335.84        2500.00        3193.43     
  1333.33        2500.00        3195.51     
  1330.83        2500.00        3197.48     
  1328.32        2500.00        3199.45     
  1325.81        2500.00        3201.21     
  1323.31        2500.00        3203.25     
  1320.80        2500.00        3204.97     
  1318.30        2500.00        3206.80     
  1315.79        2500.00        2782.31     
  1313.28        2500.00        2775.95     
  1310.78        2500.00        2781.02     
  1308.27        2500.00        2786.12     
  1305.76        2500.00        2790.64     
  1303.26        2500.00        2794.91     
  1300.75        2500.00        2798.94     
  1298.25        2500.00        2802.55     
  1295.74        2500.00        2811.30     
  1293.23        2500.00        2825.57     
  1290.73        2500.00        2827.67     
  1288.22        2500.00        2828.07     
  1285.71        2500.00        2829.09     
  1283.21        2500.00        2828.07     
  1280.70        2500.00        2829.31     
  1278.20        2500.00        2829.54     
  1275.69        2500.00        2842.80     
  1273.18        2500.00        2807.00     
  1270.68        2500.00        2827.23     
  1268.17        2500.00        2846.23     
  1265.66        2500.00        2810.20     
  1263.16        2500.00        2831.59     
  1260.65        2500.00        2849.83     
  1258.15        2500.00        2883.15     
  1255.64        2500.00        2799.22     
  1253.13        2500.00        2749.97     
  1250.63        2500.00        2777.23     
  1248.12        2500.00        2770.67     
  1245.61        2500.00        2771.01     
  1243.11        2500.00        2771.40     
  1240.60        2500.00        2771.71     
  1238.10        2500.00        2772.07     
  1235.59        2500.00        2772.42     
  1233.08        2500.00        2773.04     
  1230.58        2500.00        2773.14     
  1228.07        2500.00        2771.76     
  1225.56        2500.00        2773.85     
  1223.06        2500.00        2774.21     
  1220.55        2500.00        2775.11     
  1218.05        2500.00        2775.57     
  1215.54        2500.00        2775.83     
  1213.03        2500.00        2775.96     
  1210.53        2500.00        2776.56     
  1208.02        2500.00        2775.61     
  1205.51        2500.00        2776.08     
  1203.01        2500.00        2777.67     
  1200.50        2500.00        2777.93     
  1197.99        2500.00        2778.22     
  1195.49        2500.00        2777.63     
  1192.98        2500.00        2778.97     
  1190.48        2500.00        2779.33     
  1187.97        2500.00        2778.23     
  1185.46        2500.00        2769.96     
  1182.96        2500.00        2778.68     
  1180.45        2500.00        2770.66     
  1177.94        2500.00        2771.25     
  1175.44        2500.00        2781.72     
  1172.93        2500.00        2771.95     
  1170.43        2500.00        2782.54     
  1167.92        2500.00        2783.04     
  1165.41        2500.00        2783.27     
  1162.91        2500.00        2783.28     
  1160.40        2500.00        2783.33     
  1157.89        2500.00        2784.43     
  1155.39        2500.00        2785.40     
  1152.88        2500.00        2785.26     
  1150.38        2500.00        2785.31     
  1147.87        2500.00        2775.37     
  1145.36        2500.00        2786.14     
  1142.86        2500.00        2786.80     
  1140.35        2500.00        2787.31     
  1137.84        2500.00        2787.72     
  1135.34        2500.00        2788.65     
  1132.83        2500.00        2788.20     
  1130.33        2500.00        2789.48     
  1127.82        2500.00        2789.90     
  1125.31        2500.00        2789.84     
  1122.81        2500.00        2789.87     
  1120.30        2500.00        2791.16     
  1117.79        2500.00        2790.83     
  1115.29        2500.00        2791.57     
  1112.78        2500.00        2791.67     
  1110.28        2500.00        2792.44     
  1107.77        2500.00        2793.03     
  1105.26        2500.00        2793.33     
  1102.76        2500.00        2794.19     
  1100.25        2500.00        2794.63     
  1097.74        2500.00        2795.08     
  1095.24        2500.00        2794.50     
  1092.73        2500.00        2795.42     
  1090.23        2500.00        2795.76     
  1087.72        2500.00        2796.10     
  1085.21        2500.00        2796.72     
  1082.71        2500.00        2797.08     
  1080.20        2500.00        2798.02     
  1077.69        2500.00        2797.42     
  1075.19        2500.00        2797.56     
  1072.68        2500.00        2799.04     
  1070.18        2500.00        2798.31     
  1067.67        2500.00        2799.19     
  1065.16        2500.00        2799.54     
  1062.66        2500.00        2800.10     
  1060.15        2500.00        2801.18     
  1057.64        2500.00        2801.57     
  1055.14        2500.00        2801.90     
  1052.63        2500.00        2802.23     
  1050.13        2500.00        2799.44     
  1047.62        2500.00        2799.74     
  1045.11        2500.00        2803.23     
  1042.61        2500.00        2803.57     
  1040.10        2500.00        2803.91     
  1037.59        2500.00        2801.01     
  1035.09        2500.00        2804.59     
  1032.58        2500.00        2804.94     
  1030.08        2500.00        2805.28     
  1027.57        2500.00        2805.63     
  1025.06        2500.00        2806.05     
  1022.56        2500.00        2806.40     
  1020.05        2500.00        2806.75     
  1017.54        2500.00        2807.11     
  1015.04        2500.00        2807.47     
  1012.53        2500.00        2807.83     
  1010.03        2500.00        2807.74     
  1007.52        2500.00        2794.77     
  1005.01        2500.00        2808.92     
  1002.51        2500.00        2809.29     
  1000.00        2500.00        2809.67     
