|6.6.6
Archiving\03_Data\Deqfrac/QFM_m2.75/T13/T13_6.tab                     
           1
T(K)    
  0.000000000000000E+000
  0.000000000000000E+000
           0
           3
T(K)           P(bar)         rho,kg/m3     
  1631.41        2500.00        3247.02     
  1629.83        2500.00        3287.63     
  1628.25        2500.00        3253.31     
  1626.66        2500.00        3255.41     
  1625.08        2500.00        3255.69     
  1623.50        2500.00        3256.30     
  1621.92        2500.00        3256.60     
  1620.33        2500.00        3257.86     
  1618.75        2500.00        3258.08     
  1617.17        2500.00        3258.51     
  1615.59        2500.00        3259.11     
  1614.00        2500.00        3260.02     
  1612.42        2500.00        3259.81     
  1610.84        2500.00        3260.41     
  1609.26        2500.00        3261.62     
  1607.67        2500.00        3262.64     
  1606.09        2500.00        3263.52     
  1604.51        2500.00        3263.74     
  1602.93        2500.00        3264.49     
  1601.34        2500.00        3264.97     
  1599.76        2500.00        3265.66     
  1598.18        2500.00        3266.12     
  1596.60        2500.00        3267.23     
  1595.01        2500.00        3267.69     
  1593.43        2500.00        3268.59     
  1591.85        2500.00        3268.94     
  1590.27        2500.00        3269.69     
  1588.68        2500.00        3270.17     
  1587.10        2500.00        3270.78     
  1585.52        2500.00        3271.95     
  1583.94        2500.00        3272.47     
  1582.35        2500.00        3272.44     
  1580.77        2500.00        3273.21     
  1579.19        2500.00        3273.63     
  1577.61        2500.00        3275.29     
  1576.02        2500.00        3275.48     
  1574.44        2500.00        3268.59     
  1572.86        2500.00        3282.64     
  1571.28        2500.00        3277.84     
  1569.69        2500.00        3278.08     
  1568.11        2500.00        3278.53     
  1566.53        2500.00        3279.40     
  1564.95        2500.00        3279.99     
  1563.36        2500.00        3280.50     
  1561.78        2500.00        3282.59     
  1560.20        2500.00        3279.83     
  1558.62        2500.00        3282.96     
  1557.03        2500.00        3282.42     
  1555.45        2500.00        3283.46     
  1553.87        2500.00        3284.17     
  1552.29        2500.00        3284.21     
  1550.70        2500.00        3285.55     
  1549.12        2500.00        3286.04     
  1547.54        2500.00        3285.36     
  1545.96        2500.00        3286.32     
  1544.37        2500.00        3287.74     
  1542.79        2500.00        3288.37     
  1541.21        2500.00        3288.89     
  1539.63        2500.00        3288.93     
  1538.04        2500.00        3290.62     
  1536.46        2500.00        3289.50     
  1534.88        2500.00        3291.02     
  1533.30        2500.00        3291.98     
  1531.71        2500.00        3291.93     
  1530.13        2500.00        3292.55     
  1528.55        2500.00        3293.06     
  1526.97        2500.00        3293.66     
  1525.38        2500.00        3294.79     
  1523.80        2500.00        3294.84     
  1522.22        2500.00        3307.82     
  1520.64        2500.00        3293.66     
  1519.05        2500.00        3296.06     
  1517.47        2500.00        3296.39     
  1515.89        2500.00        3276.50     
  1514.31        2500.00        3295.25     
  1512.72        2500.00        3276.97     
  1511.14        2500.00        3281.50     
  1509.56        2500.00        3281.79     
  1507.98        2500.00        3278.25     
  1506.39        2500.00        3283.47     
  1504.81        2500.00        3280.47     
  1503.23        2500.00        3281.62     
  1501.65        2500.00        3282.40     
  1500.06        2500.00        3282.85     
  1498.48        2500.00        3284.16     
  1496.90        2500.00        3285.43     
  1495.32        2500.00        3286.30     
  1493.73        2500.00        3286.70     
  1492.15        2500.00        3273.61     
  1490.57        2500.00        3270.43     
  1488.99        2500.00        3271.85     
  1487.40        2500.00        3273.23     
  1485.82        2500.00        3274.69     
  1484.24        2500.00        3275.88     
  1482.66        2500.00        3277.60     
  1481.07        2500.00        3278.46     
  1479.49        2500.00        3279.89     
  1477.91        2500.00        3281.53     
  1476.33        2500.00        3282.69     
  1474.74        2500.00        3284.16     
  1473.16        2500.00        3285.37     
  1471.58        2500.00        3286.98     
  1470.00        2500.00        3288.82     
  1468.41        2500.00        3289.76     
  1466.83        2500.00        3291.25     
  1465.25        2500.00        3297.68     
  1463.67        2500.00        3300.48     
  1462.08        2500.00        3301.34     
  1460.50        2500.00        3302.81     
  1458.92        2500.00        3304.51     
  1457.34        2500.00        3306.15     
  1455.75        2500.00        3306.75     
  1454.17        2500.00        3308.15     
  1452.59        2500.00        3309.34     
  1451.01        2500.00        3311.04     
  1449.42        2500.00        3220.81     
  1447.84        2500.00        3127.76     
  1446.26        2500.00        3130.10     
  1444.68        2500.00        3132.52     
  1443.09        2500.00        3134.97     
  1441.51        2500.00        3137.46     
  1439.93        2500.00        3139.91     
  1438.35        2500.00        3142.29     
  1436.76        2500.00        3144.73     
  1435.18        2500.00        3147.06     
  1433.60        2500.00        3149.71     
  1432.02        2500.00        3152.09     
  1430.43        2500.00        3154.47     
  1428.85        2500.00        3157.31     
  1427.27        2500.00        3159.54     
  1425.69        2500.00        3162.06     
  1424.10        2500.00        3164.38     
  1422.52        2500.00        3166.84     
  1420.94        2500.00        3169.49     
  1419.36        2500.00        3171.86     
  1417.78        2500.00        3174.48     
  1416.19        2500.00        3176.95     
  1414.61        2500.00        3179.54     
  1413.03        2500.00        3182.03     
  1411.45        2500.00        3184.63     
  1409.86        2500.00        3187.04     
  1408.28        2500.00        3189.03     
  1406.70        2500.00        3192.35     
  1405.12        2500.00        3194.67     
  1403.53        2500.00        3197.26     
  1401.95        2500.00        3200.11     
  1400.37        2500.00        3202.43     
  1398.79        2500.00        3204.73     
  1397.20        2500.00        3207.45     
  1395.62        2500.00        3210.05     
  1394.04        2500.00        3212.77     
  1392.46        2500.00        3213.29     
  1390.87        2500.00        3218.53     
  1389.29        2500.00        3220.29     
  1387.71        2500.00        3222.54     
  1386.13        2500.00        3224.23     
  1384.54        2500.00        3224.07     
  1382.96        2500.00        3230.43     
  1381.38        2500.00        3210.38     
  1379.80        2500.00        3240.04     
  1378.21        2500.00        3237.22     
  1376.63        2500.00        3239.70     
  1375.05        2500.00        3241.83     
  1373.47        2500.00        3244.57     
  1371.88        2500.00        3245.25     
  1370.30        2500.00        3248.60     
  1368.72        2500.00        3250.19     
  1367.14        2500.00        3252.67     
  1365.55        2500.00        3255.28     
  1363.97        2500.00        3256.26     
  1362.39        2500.00        3258.47     
  1360.81        2500.00        3260.82     
  1359.22        2500.00        3262.38     
  1357.64        2500.00        3264.76     
  1356.06        2500.00        3266.57     
  1354.48        2500.00        3268.89     
  1352.89        2500.00        3270.31     
  1351.31        2500.00        3272.45     
  1349.73        2500.00        3274.62     
  1348.15        2500.00        3276.41     
  1346.56        2500.00        3278.68     
  1344.98        2500.00        3280.34     
  1343.40        2500.00        3281.63     
  1341.82        2500.00        3283.67     
  1340.23        2500.00        3285.29     
  1338.65        2500.00        3287.13     
  1337.07        2500.00        3288.75     
  1335.49        2500.00        3290.50     
  1333.90        2500.00        3291.51     
  1332.32        2500.00        3293.17     
  1330.74        2500.00        3295.19     
  1329.16        2500.00        3295.40     
  1327.57        2500.00        3296.47     
  1325.99        2500.00        3298.67     
  1324.41        2500.00        3299.64     
  1322.83        2500.00        3301.57     
  1321.24        2500.00        3302.50     
  1319.66        2500.00        3303.12     
  1318.08        2500.00        3304.45     
  1316.50        2500.00        3305.18     
  1314.91        2500.00        3306.62     
  1313.33        2500.00        3307.63     
  1311.75        2500.00        3307.59     
  1310.17        2500.00        3308.55     
  1308.58        2500.00        3308.78     
  1307.00        2500.00        3310.15     
  1305.42        2500.00        3310.83     
  1303.84        2500.00        3311.25     
  1302.25        2500.00        3311.44     
  1300.67        2500.00        2881.50     
  1299.09        2500.00        2838.44     
  1297.51        2500.00        2842.85     
  1295.92        2500.00        2851.01     
  1294.34        2500.00        2866.07     
  1292.76        2500.00        2870.21     
  1291.18        2500.00        2873.92     
  1289.59        2500.00        2877.14     
  1288.01        2500.00        2878.70     
  1286.43        2500.00        2882.87     
  1284.85        2500.00        2878.29     
  1283.26        2500.00        2875.16     
  1281.68        2500.00        3074.93     
  1280.10        2500.00        2888.34     
  1278.52        2500.00        2912.02     
  1276.93        2500.00        2867.47     
  1275.35        2500.00        2930.20     
  1273.77        2500.00        2841.37     
  1272.19        2500.00        2941.31     
  1270.60        2500.00        2897.53     
  1269.02        2500.00        2826.95     
  1267.44        2500.00        3087.29     
  1265.86        2500.00        2899.09     
  1264.27        2500.00        2905.57     
  1262.69        2500.00        2913.59     
  1261.11        2500.00        2904.72     
  1259.53        2500.00        2815.90     
  1257.94        2500.00        3234.64     
  1256.36        2500.00        3488.64     
  1254.78        2500.00        2855.70     
  1253.20        2500.00        2932.99     
  1251.61        2500.00        2829.32     
  1250.03        2500.00        2839.07     
  1248.45        2500.00        2945.57     
  1246.87        2500.00        2894.85     
  1245.28        2500.00        2879.52     
  1243.70        2500.00        2872.65     
  1242.12        2500.00        2890.77     
  1240.54        2500.00        2787.64     
  1238.95        2500.00        3303.81     
  1237.37        2500.00        2867.12     
  1235.79        2500.00        2891.42     
  1234.21        2500.00        2880.53     
  1232.62        2500.00        2840.54     
  1231.04        2500.00        2883.09     
  1229.46        2500.00        2680.90     
  1227.88        2500.00        2680.86     
  1226.29        2500.00        2680.94     
  1224.71        2500.00        2681.09     
  1223.13        2500.00        2681.18     
  1221.55        2500.00        2681.23     
  1219.96        2500.00        2681.33     
  1218.38        2500.00        2681.33     
  1216.80        2500.00        2681.42     
  1215.22        2500.00        2681.50     
  1213.63        2500.00        2681.55     
  1212.05        2500.00        2681.59     
  1210.47        2500.00        2681.66     
  1208.89        2500.00        2681.74     
  1207.31        2500.00        2681.82     
  1205.72        2500.00        2681.97     
  1204.14        2500.00        2682.07     
  1202.56        2500.00        2682.15     
  1200.98        2500.00        2682.23     
  1199.39        2500.00        2682.31     
  1197.81        2500.00        2682.39     
  1196.23        2500.00        2682.47     
  1194.65        2500.00        2682.54     
  1193.06        2500.00        2682.63     
  1191.48        2500.00        2682.71     
  1189.90        2500.00        2682.79     
  1188.32        2500.00        2682.87     
  1186.73        2500.00        2682.95     
  1185.15        2500.00        2683.03     
  1183.57        2500.00        2683.05     
  1181.99        2500.00        2683.15     
  1180.40        2500.00        2682.87     
  1178.82        2500.00        2683.34     
  1177.24        2500.00        2683.44     
  1175.66        2500.00        2683.26     
  1174.07        2500.00        2683.60     
  1172.49        2500.00        2683.68     
  1170.91        2500.00        2683.62     
  1169.33        2500.00        2683.81     
  1167.74        2500.00        2683.84     
  1166.16        2500.00        2684.00     
  1164.58        2500.00        2683.97     
  1163.00        2500.00        2684.17     
  1161.41        2500.00        2684.23     
  1159.83        2500.00        2684.32     
  1158.25        2500.00        2684.35     
  1156.67        2500.00        2684.48     
  1155.08        2500.00        2684.57     
  1153.50        2500.00        2684.64     
  1151.92        2500.00        2684.72     
  1150.34        2500.00        2684.81     
  1148.75        2500.00        2684.89     
  1147.17        2500.00        2684.97     
  1145.59        2500.00        2685.05     
  1144.01        2500.00        2685.13     
  1142.42        2500.00        2685.21     
  1140.84        2500.00        2685.30     
  1139.26        2500.00        2685.38     
  1137.68        2500.00        2685.45     
  1136.09        2500.00        2685.54     
  1134.51        2500.00        2685.60     
  1132.93        2500.00        2685.68     
  1131.35        2500.00        2685.78     
  1129.76        2500.00        2685.86     
  1128.18        2500.00        2685.95     
  1126.60        2500.00        2686.03     
  1125.02        2500.00        2686.09     
  1123.43        2500.00        2686.18     
  1121.85        2500.00        2686.27     
  1120.27        2500.00        2686.35     
  1118.69        2500.00        2686.43     
  1117.10        2500.00        2686.55     
  1115.52        2500.00        2686.62     
  1113.94        2500.00        2686.69     
  1112.36        2500.00        2686.76     
  1110.77        2500.00        2686.82     
  1109.19        2500.00        2686.90     
  1107.61        2500.00        2686.99     
  1106.03        2500.00        2687.06     
  1104.44        2500.00        2687.15     
  1102.86        2500.00        2687.23     
  1101.28        2500.00        2687.54     
  1099.70        2500.00        2687.38     
  1098.11        2500.00        2687.47     
  1096.53        2500.00        2687.56     
  1094.95        2500.00        2687.63     
  1093.37        2500.00        2687.72     
  1091.78        2500.00        2687.80     
  1090.20        2500.00        2687.88     
  1088.62        2500.00        2687.97     
  1087.04        2500.00        2688.05     
  1085.45        2500.00        2688.13     
  1083.87        2500.00        2688.21     
  1082.29        2500.00        2688.28     
  1080.71        2500.00        2688.36     
  1079.12        2500.00        2688.44     
  1077.54        2500.00        2688.51     
  1075.96        2500.00        2688.59     
  1074.38        2500.00        2688.67     
  1072.79        2500.00        2688.74     
  1071.21        2500.00        2688.82     
  1069.63        2500.00        2688.90     
  1068.05        2500.00        2688.97     
  1066.46        2500.00        2688.84     
  1064.88        2500.00        2688.92     
  1063.30        2500.00        2689.00     
  1061.72        2500.00        2689.07     
  1060.13        2500.00        2689.15     
  1058.55        2500.00        2689.23     
  1056.97        2500.00        2689.30     
  1055.39        2500.00        2689.38     
  1053.80        2500.00        2689.46     
  1052.22        2500.00        2689.54     
  1050.64        2500.00        2689.61     
  1049.06        2500.00        2689.69     
  1047.47        2500.00        2689.76     
  1045.89        2500.00        2689.84     
  1044.31        2500.00        2689.92     
  1042.73        2500.00        2689.99     
  1041.14        2500.00        2690.27     
  1039.56        2500.00        2690.34     
  1037.98        2500.00        2690.41     
  1036.40        2500.00        2690.56     
  1034.81        2500.00        2690.39     
  1033.23        2500.00        2690.70     
  1031.65        2500.00        2690.78     
  1030.07        2500.00        2690.85     
  1028.48        2500.00        2690.65     
  1026.90        2500.00        2690.73     
  1025.32        2500.00        2690.77     
  1023.74        2500.00        2690.85     
  1022.15        2500.00        2690.92     
  1020.57        2500.00        2691.00     
  1018.99        2500.00        2691.07     
  1017.41        2500.00        2691.14     
  1015.82        2500.00        2691.35     
  1014.24        2500.00        2691.41     
  1012.66        2500.00        2691.52     
  1011.08        2500.00        2691.59     
  1009.49        2500.00        2691.66     
  1007.91        2500.00        2691.73     
  1006.33        2500.00        2691.80     
  1004.75        2500.00        2691.88     
  1003.16        2500.00        2691.95     
  1001.58        2500.00        2692.03     
  1000.00        2500.00        2692.10     
