|6.6.6
Archiving\03_Data\eqfracLP/QFM_m2.5/EETA/EETA_6.tab                       
           1
T(K)    
  0.000000000000000E+000
  0.000000000000000E+000
           0
           3
T(K)           P(bar)         rho,kg/m3     
  1423.08        500.000        2790.79     
  1422.02        500.000        3310.54     
  1420.96        500.000        3302.21     
  1419.90        500.000        3303.87     
  1418.84        500.000        3304.47     
  1417.78        500.000        3305.56     
  1416.72        500.000        3306.28     
  1415.66        500.000        3224.80     
  1414.60        500.000        3126.22     
  1413.54        500.000        3123.97     
  1412.48        500.000        3124.89     
  1411.42        500.000        3125.80     
  1410.36        500.000        3126.89     
  1409.30        500.000        3127.94     
  1408.24        500.000        3129.15     
  1407.17        500.000        3130.22     
  1406.11        500.000        3131.75     
  1405.05        500.000        3132.60     
  1403.99        500.000        3137.66     
  1402.93        500.000        3142.24     
  1401.87        500.000        3143.66     
  1400.81        500.000        3144.74     
  1399.75        500.000        3146.28     
  1398.69        500.000        3147.93     
  1397.63        500.000        3149.12     
  1396.57        500.000        3150.63     
  1395.51        500.000        3150.57     
  1394.45        500.000        3154.59     
  1393.39        500.000        3154.61     
  1392.33        500.000        3172.30     
  1391.27        500.000        3156.86     
  1390.21        500.000        3158.77     
  1389.15        500.000        3160.31     
  1388.09        500.000        3161.63     
  1387.03        500.000        3162.98     
  1385.97        500.000        3164.46     
  1384.91        500.000        3166.22     
  1383.85        500.000        3166.95     
  1382.79        500.000        3168.72     
  1381.73        500.000        3170.41     
  1380.67        500.000        3171.23     
  1379.61        500.000        3173.03     
  1378.55        500.000        3174.51     
  1377.48        500.000        3175.97     
  1376.42        500.000        3177.84     
  1375.36        500.000        3178.94     
  1374.30        500.000        3180.41     
  1373.24        500.000        3181.42     
  1372.18        500.000        3177.94     
  1371.12        500.000        3190.20     
  1370.06        500.000        3186.39     
  1369.00        500.000        3188.36     
  1367.94        500.000        3189.07     
  1366.88        500.000        3190.62     
  1365.82        500.000        3192.05     
  1364.76        500.000        3193.43     
  1363.70        500.000        3194.90     
  1362.64        500.000        3196.27     
  1361.58        500.000        3197.84     
  1360.52        500.000        3199.28     
  1359.46        500.000        3200.86     
  1358.40        500.000        3202.40     
  1357.34        500.000        3203.77     
  1356.28        500.000        3205.12     
  1355.22        500.000        3206.86     
  1354.16        500.000        3207.94     
  1353.10        500.000        3209.70     
  1352.04        500.000        3209.06     
  1350.98        500.000        3214.41     
  1349.92        500.000        3213.92     
  1348.86        500.000        3215.38     
  1347.80        500.000        3217.02     
  1346.73        500.000        3218.21     
  1345.67        500.000        3219.67     
  1344.61        500.000        3221.21     
  1343.55        500.000        3222.51     
  1342.49        500.000        3224.14     
  1341.43        500.000        3225.75     
  1340.37        500.000        3226.72     
  1339.31        500.000        3227.94     
  1338.25        500.000        3229.44     
  1337.19        500.000        3230.86     
  1336.13        500.000        3214.13     
  1335.07        500.000        3237.96     
  1334.01        500.000        3238.96     
  1332.95        500.000        3236.05     
  1331.89        500.000        3237.41     
  1330.83        500.000        3238.92     
  1329.77        500.000        3240.00     
  1328.71        500.000        3240.41     
  1327.65        500.000        3243.38     
  1326.59        500.000        3243.75     
  1325.53        500.000        3244.88     
  1324.47        500.000        3246.14     
  1323.41        500.000        3247.41     
  1322.35        500.000        3248.48     
  1321.29        500.000        3249.67     
  1320.23        500.000        3250.66     
  1319.17        500.000        3251.55     
  1318.11        500.000        3252.89     
  1317.04        500.000        3254.14     
  1315.98        500.000        3255.12     
  1314.92        500.000        3256.05     
  1313.86        500.000        3257.09     
  1312.80        500.000        3257.95     
  1311.74        500.000        3259.12     
  1310.68        500.000        3259.96     
  1309.62        500.000        3260.69     
  1308.56        500.000        3261.82     
  1307.50        500.000        3262.52     
  1306.44        500.000        3263.43     
  1305.38        500.000        3264.22     
  1304.32        500.000        3265.03     
  1303.26        500.000        3265.80     
  1302.20        500.000        3266.45     
  1301.14        500.000        3267.20     
  1300.08        500.000        3267.84     
  1299.02        500.000        3268.51     
  1297.96        500.000        3269.09     
  1296.90        500.000        3269.63     
  1295.84        500.000        3270.26     
  1294.78        500.000        3270.68     
  1293.72        500.000        3271.14     
  1292.66        500.000        3271.67     
  1291.60        500.000        3272.03     
  1290.54        500.000        3272.40     
  1289.48        500.000        3272.66     
  1288.42        500.000        3273.07     
  1287.36        500.000        3273.29     
  1286.29        500.000        3273.52     
  1285.23        500.000        3273.70     
  1284.17        500.000        3274.03     
  1283.11        500.000        3274.47     
  1282.05        500.000        3273.80     
  1280.99        500.000        3274.18     
  1279.93        500.000        2802.46     
  1278.87        500.000        2801.80     
  1277.81        500.000        2804.99     
  1276.75        500.000        2807.29     
  1275.69        500.000        2809.92     
  1274.63        500.000        2812.80     
  1273.57        500.000        2815.27     
  1272.51        500.000        2819.74     
  1271.45        500.000        2834.08     
  1270.39        500.000        2836.17     
  1269.33        500.000        2838.31     
  1268.27        500.000        2840.19     
  1267.21        500.000        2842.06     
  1266.15        500.000        2843.77     
  1265.09        500.000        2845.41     
  1264.03        500.000        2847.33     
  1262.97        500.000        2851.05     
  1261.91        500.000        2852.27     
  1260.85        500.000        2853.65     
  1259.79        500.000        2854.80     
  1258.73        500.000        2856.33     
  1257.67        500.000        2857.25     
  1256.60        500.000        2858.51     
  1255.54        500.000        2859.23     
  1254.48        500.000        2861.00     
  1253.42        500.000        2861.38     
  1252.36        500.000        2862.45     
  1251.30        500.000        2863.33     
  1250.24        500.000        2863.97     
  1249.18        500.000        2864.73     
  1248.12        500.000        2865.27     
  1247.06        500.000        2866.10     
  1246.00        500.000        2866.79     
  1244.94        500.000        2866.94     
  1243.88        500.000        2867.84     
  1242.82        500.000        2866.33     
  1241.76        500.000        2869.57     
  1240.70        500.000        2869.30     
  1239.64        500.000        2869.72     
  1238.58        500.000        2869.54     
  1237.52        500.000        2870.01     
  1236.46        500.000        2869.62     
  1235.40        500.000        2870.62     
  1234.34        500.000        2870.18     
  1233.28        500.000        2870.64     
  1232.22        500.000        2870.54     
  1231.16        500.000        2871.01     
  1230.10        500.000        2870.50     
  1229.04        500.000        2870.65     
  1227.98        500.000        2869.36     
  1226.92        500.000        2871.05     
  1225.85        500.000        2872.35     
  1224.79        500.000        2871.71     
  1223.73        500.000        2872.38     
  1222.67        500.000        2870.53     
  1221.61        500.000        2870.78     
  1220.55        500.000        2872.04     
  1219.49        500.000        2872.51     
  1218.43        500.000        2872.22     
  1217.37        500.000        2872.45     
  1216.31        500.000        2871.20     
  1215.25        500.000        2871.37     
  1214.19        500.000        2869.76     
  1213.13        500.000        2870.32     
  1212.07        500.000        2951.88     
  1211.01        500.000        2740.94     
  1209.95        500.000        2664.50     
  1208.89        500.000        2696.27     
  1207.83        500.000        2697.12     
  1206.77        500.000        2679.28     
  1205.71        500.000        2603.18     
  1204.65        500.000        2690.24     
  1203.59        500.000        3005.98     
  1202.53        500.000        2654.29     
  1201.47        500.000        2793.98     
  1200.41        500.000        2674.97     
  1199.35        500.000        2665.72     
  1198.29        500.000        2685.29     
  1197.23        500.000        2673.52     
  1196.16        500.000        2661.25     
  1195.10        500.000        2667.47     
  1194.04        500.000        2665.68     
  1192.98        500.000        2413.14     
  1191.92        500.000        2672.88     
  1190.86        500.000        2633.51     
  1189.80        500.000        2642.88     
  1188.74        500.000        2632.58     
  1187.68        500.000        2632.63     
  1186.62        500.000        2632.67     
  1185.56        500.000        2632.72     
  1184.50        500.000        2632.77     
  1183.44        500.000        2632.81     
  1182.38        500.000        2632.86     
  1181.32        500.000        2632.91     
  1180.26        500.000        2632.96     
  1179.20        500.000        2633.00     
  1178.14        500.000        2633.05     
  1177.08        500.000        2633.10     
  1176.02        500.000        2633.15     
  1174.96        500.000        2633.19     
  1173.90        500.000        2633.24     
  1172.84        500.000        2633.29     
  1171.78        500.000        2633.33     
  1170.72        500.000        2633.38     
  1169.66        500.000        2633.43     
  1168.60        500.000        2633.46     
  1167.54        500.000        2633.51     
  1166.48        500.000        2633.56     
  1165.41        500.000        2633.60     
  1164.35        500.000        2633.65     
  1163.29        500.000        2633.67     
  1162.23        500.000        2633.71     
  1161.17        500.000        2633.76     
  1160.11        500.000        2633.78     
  1159.05        500.000        2633.83     
  1157.99        500.000        2633.90     
  1156.93        500.000        2633.95     
  1155.87        500.000        2633.99     
  1154.81        500.000        2634.00     
  1153.75        500.000        2634.05     
  1152.69        500.000        2634.13     
  1151.63        500.000        2634.15     
  1150.57        500.000        2634.18     
  1149.51        500.000        2634.25     
  1148.45        500.000        2634.29     
  1147.39        500.000        2634.32     
  1146.33        500.000        2634.36     
  1145.27        500.000        2634.45     
  1144.21        500.000        2634.48     
  1143.15        500.000        2634.49     
  1142.09        500.000        2634.56     
  1141.03        500.000        2634.61     
  1139.97        500.000        2634.66     
  1138.91        500.000        2634.71     
  1137.85        500.000        2634.76     
  1136.79        500.000        2634.80     
  1135.72        500.000        2634.85     
  1134.66        500.000        2634.92     
  1133.60        500.000        2634.96     
  1132.54        500.000        2635.01     
  1131.48        500.000        2635.06     
  1130.42        500.000        2635.10     
  1129.36        500.000        2635.15     
  1128.30        500.000        2635.20     
  1127.24        500.000        2635.24     
  1126.18        500.000        2635.29     
  1125.12        500.000        2635.34     
  1124.06        500.000        2635.38     
  1123.00        500.000        2635.43     
  1121.94        500.000        2635.48     
  1120.88        500.000        2635.52     
  1119.82        500.000        2635.57     
  1118.76        500.000        2635.61     
  1117.70        500.000        2635.66     
  1116.64        500.000        2635.71     
  1115.58        500.000        2635.75     
  1114.52        500.000        2635.27     
  1113.46        500.000        2635.32     
  1112.40        500.000        2635.36     
  1111.34        500.000        2635.41     
  1110.28        500.000        2635.28     
  1109.22        500.000        2635.33     
  1108.16        500.000        2634.72     
  1107.10        500.000        2634.01     
  1106.04        500.000        2634.03     
  1104.97        500.000        2634.06     
  1103.91        500.000        2634.08     
  1102.85        500.000        2634.10     
  1101.79        500.000        2633.31     
  1100.73        500.000        2634.39     
  1099.67        500.000        2633.32     
  1098.61        500.000        2633.33     
  1097.55        500.000        2633.04     
  1096.49        500.000        2632.89     
  1095.43        500.000        2633.08     
  1094.37        500.000        2632.96     
  1093.31        500.000        2633.02     
  1092.25        500.000        2633.08     
  1091.19        500.000        2633.29     
  1090.13        500.000        2633.13     
  1089.07        500.000        2633.19     
  1088.01        500.000        2633.35     
  1086.95        500.000        2633.26     
  1085.89        500.000        2633.42     
  1084.83        500.000        2633.43     
  1083.77        500.000        2633.47     
  1082.71        500.000        2633.50     
  1081.65        500.000        2633.53     
  1080.59        500.000        2633.52     
  1079.53        500.000        2633.56     
  1078.47        500.000        2633.47     
  1077.41        500.000        2633.51     
  1076.35        500.000        2633.56     
  1075.28        500.000        2633.60     
  1074.22        500.000        2633.64     
  1073.16        500.000        2633.61     
  1072.10        500.000        2633.65     
  1071.04        500.000        2633.69     
  1069.98        500.000        2633.74     
  1068.92        500.000        2633.78     
  1067.86        500.000        2633.82     
  1066.80        500.000        2633.79     
  1065.74        500.000        2633.84     
  1064.68        500.000        2633.88     
  1063.62        500.000        2633.92     
  1062.56        500.000        2633.95     
  1061.50        500.000        2633.99     
  1060.44        500.000        2634.04     
  1059.38        500.000        2634.01     
  1058.32        500.000        2634.06     
  1057.26        500.000        2634.10     
  1056.20        500.000        2634.15     
  1055.14        500.000        2634.19     
  1054.08        500.000        2634.24     
  1053.02        500.000        2634.21     
  1051.96        500.000        2634.26     
  1050.90        500.000        2634.30     
  1049.84        500.000        2634.35     
  1048.78        500.000        2634.39     
  1047.72        500.000        2634.44     
  1046.66        500.000        2634.48     
  1045.60        500.000        2634.46     
  1044.53        500.000        2634.51     
  1043.47        500.000        2634.55     
  1042.41        500.000        2634.60     
  1041.35        500.000        2634.64     
  1040.29        500.000        2634.69     
  1039.23        500.000        2634.73     
  1038.17        500.000        2634.71     
  1037.11        500.000        2634.76     
  1036.05        500.000        2634.80     
  1034.99        500.000        2634.85     
  1033.93        500.000        2634.89     
  1032.87        500.000        2634.94     
  1031.81        500.000        2634.98     
  1030.75        500.000        2635.03     
  1029.69        500.000        2635.07     
  1028.63        500.000        2635.11     
  1027.57        500.000        2635.16     
  1026.51        500.000        2635.20     
  1025.45        500.000        2635.25     
  1024.39        500.000        2635.29     
  1023.33        500.000        2635.34     
  1022.27        500.000        2635.38     
  1021.21        500.000        2635.43     
  1020.15        500.000        2635.47     
  1019.09        500.000        2635.51     
  1018.03        500.000        2635.56     
  1016.97        500.000        2635.60     
  1015.91        500.000        2635.65     
  1014.84        500.000        2635.69     
  1013.78        500.000        2635.74     
  1012.72        500.000        2635.78     
  1011.66        500.000        2635.83     
  1010.60        500.000        2635.87     
  1009.54        500.000        2635.91     
  1008.48        500.000        2635.96     
  1007.42        500.000        2636.00     
  1006.36        500.000        2636.05     
  1005.30        500.000        2636.09     
  1004.24        500.000        2636.14     
  1003.18        500.000        2636.18     
  1002.12        500.000        2636.22     
  1001.06        500.000        2636.20     
