|6.6.6
Archiving\03_Data\DeqLP/QFM_m2.25/WD94/WD94_6.tab                         
           1
T(K)    
  0.000000000000000E+000
  0.000000000000000E+000
           0
           3
T(K)           P(bar)         rho,kg/m3     
  2000.00        500.000        2939.47     
  1996.79        500.000        2940.25     
  1993.59        500.000        2941.02     
  1990.38        500.000        2941.80     
  1987.18        500.000        2942.57     
  1983.97        500.000        2943.35     
  1980.77        500.000        2944.12     
  1977.56        500.000        2944.90     
  1974.36        500.000        2945.68     
  1971.15        500.000        2946.45     
  1967.95        500.000        2947.23     
  1964.74        500.000        2948.00     
  1961.54        500.000        2948.78     
  1958.33        500.000        2949.56     
  1955.13        500.000        2950.33     
  1951.92        500.000        2951.11     
  1948.72        500.000        2951.89     
  1945.51        500.000        2952.66     
  1942.31        500.000        2953.44     
  1939.10        500.000        2954.21     
  1935.90        500.000        2954.99     
  1932.69        500.000        2955.77     
  1929.49        500.000        2956.55     
  1926.28        500.000        2957.32     
  1923.08        500.000        2958.10     
  1919.87        500.000        2958.88     
  1916.67        500.000        2959.65     
  1913.46        500.000        2960.48     
  1910.26        500.000        3163.20     
  1907.05        500.000        3169.55     
  1903.85        500.000        3170.68     
  1900.64        500.000        3171.40     
  1897.44        500.000        3172.01     
  1894.23        500.000        3175.20     
  1891.03        500.000        3177.55     
  1887.82        500.000        3179.40     
  1884.62        500.000        3180.92     
  1881.41        500.000        3183.21     
  1878.21        500.000        3185.16     
  1875.00        500.000        3187.30     
  1871.79        500.000        3192.35     
  1868.59        500.000        3196.31     
  1865.38        500.000        3199.82     
  1862.18        500.000        3202.97     
  1858.97        500.000        3205.81     
  1855.77        500.000        3208.40     
  1852.56        500.000        3210.77     
  1849.36        500.000        3212.96     
  1846.15        500.000        3214.99     
  1842.95        500.000        3218.29     
  1839.74        500.000        3221.37     
  1836.54        500.000        3224.24     
  1833.33        500.000        3226.94     
  1830.13        500.000        3229.47     
  1826.92        500.000        3231.87     
  1823.72        500.000        3234.13     
  1820.51        500.000        3236.28     
  1817.31        500.000        3239.26     
  1814.10        500.000        3242.10     
  1810.90        500.000        3244.81     
  1807.69        500.000        3247.39     
  1804.49        500.000        3249.85     
  1801.28        500.000        3252.21     
  1798.08        500.000        3254.48     
  1794.87        500.000        3256.65     
  1791.67        500.000        3258.98     
  1788.46        500.000        3261.23     
  1785.26        500.000        3263.40     
  1782.05        500.000        3265.50     
  1778.85        500.000        3267.52     
  1775.64        500.000        3269.49     
  1772.44        500.000        3271.39     
  1769.23        500.000        3273.23     
  1766.03        500.000        3275.49     
  1762.82        500.000        3277.67     
  1759.62        500.000        3279.80     
  1756.41        500.000        3281.86     
  1753.21        500.000        3283.87     
  1750.00        500.000        3285.82     
  1746.79        500.000        3287.73     
  1743.59        500.000        3289.58     
  1740.38        500.000        3291.60     
  1737.18        500.000        3293.57     
  1733.97        500.000        3295.49     
  1730.77        500.000        3297.37     
  1727.56        500.000        3299.20     
  1724.36        500.000        3301.00     
  1721.15        500.000        3302.76     
  1717.95        500.000        3304.48     
  1714.74        500.000        3306.15     
  1711.54        500.000        3307.79     
  1708.33        500.000        3309.40     
  1705.13        500.000        3310.98     
  1701.92        500.000        3312.53     
  1698.72        500.000        3314.05     
  1695.51        500.000        3315.55     
  1692.31        500.000        3317.02     
  1689.10        500.000        3318.50     
  1685.90        500.000        3319.96     
  1682.69        500.000        3321.40     
  1679.49        500.000        3322.82     
  1676.28        500.000        3324.21     
  1673.08        500.000        3325.59     
  1669.87        500.000        3326.95     
  1666.67        500.000        3328.29     
  1663.46        500.000        3329.51     
  1660.26        500.000        3330.72     
  1657.05        500.000        3331.91     
  1653.85        500.000        3333.09     
  1650.64        500.000        3334.26     
  1647.44        500.000        3335.41     
  1644.23        500.000        3336.56     
  1641.03        500.000        3337.69     
  1637.82        500.000        3338.76     
  1634.62        500.000        3339.82     
  1631.41        500.000        3340.88     
  1628.21        500.000        3341.92     
  1625.00        500.000        3342.94     
  1621.79        500.000        3343.96     
  1618.59        500.000        3343.42     
  1615.38        500.000        3343.72     
  1612.18        500.000        3343.06     
  1608.97        500.000        3342.44     
  1605.77        500.000        3341.84     
  1602.56        500.000        3341.28     
  1599.36        500.000        3340.75     
  1596.15        500.000        3340.25     
  1592.95        500.000        3339.77     
  1589.74        500.000        3339.32     
  1586.54        500.000        3339.19     
  1583.33        500.000        3339.06     
  1580.13        500.000        3338.95     
  1576.92        500.000        3338.85     
  1573.72        500.000        3338.76     
  1570.51        500.000        3338.69     
  1567.31        500.000        3338.62     
  1564.10        500.000        3338.56     
  1560.90        500.000        3338.64     
  1557.69        500.000        3338.72     
  1554.49        500.000        3338.81     
  1551.28        500.000        3338.90     
  1548.08        500.000        3339.00     
  1544.87        500.000        3339.10     
  1541.67        500.000        3339.21     
  1538.46        500.000        3339.33     
  1535.26        500.000        3339.50     
  1532.05        500.000        3339.67     
  1528.85        500.000        3339.84     
  1525.64        500.000        3340.02     
  1522.44        500.000        3340.21     
  1519.23        500.000        3340.39     
  1516.03        500.000        3340.58     
  1512.82        500.000        3340.78     
  1509.62        500.000        3340.98     
  1506.41        500.000        3341.20     
  1503.21        500.000        3341.41     
  1500.00        500.000        3341.63     
  1496.79        500.000        3341.85     
  1493.59        500.000        3342.07     
  1490.38        500.000        3342.29     
  1487.18        500.000        3342.52     
  1483.97        500.000        3342.73     
  1480.77        500.000        3342.93     
  1477.56        500.000        3343.14     
  1474.36        500.000        3343.35     
  1471.15        500.000        3343.68     
  1467.95        500.000        3344.01     
  1464.74        500.000        3344.26     
  1461.54        500.000        3344.59     
  1458.33        500.000        3344.92     
  1455.13        500.000        3345.25     
  1451.92        500.000        3345.59     
  1448.72        500.000        3345.92     
  1445.51        500.000        3346.29     
  1442.31        500.000        3346.65     
  1439.10        500.000        3346.98     
  1435.90        500.000        3347.38     
  1432.69        500.000        3346.60     
  1429.49        500.000        3345.38     
  1426.28        500.000        3345.82     
  1423.08        500.000        3343.52     
  1419.87        500.000        3343.97     
  1416.67        500.000        3344.41     
  1413.46        500.000        3344.85     
  1410.26        500.000        3341.32     
  1407.05        500.000        3341.76     
  1403.85        500.000        3342.20     
  1400.64        500.000        3342.64     
  1397.44        500.000        3343.08     
  1394.23        500.000        3343.52     
  1391.03        500.000        3343.96     
  1387.82        500.000        3344.40     
  1384.62        500.000        3339.56     
  1381.41        500.000        3340.00     
  1378.21        500.000        3340.44     
  1375.00        500.000        3340.87     
  1371.79        500.000        3341.31     
  1368.59        500.000        3341.74     
  1365.38        500.000        3342.18     
  1362.18        500.000        3342.61     
  1358.97        500.000        3339.24     
  1355.77        500.000        3339.67     
  1352.56        500.000        3340.10     
  1349.36        500.000        3340.53     
  1346.15        500.000        3340.96     
  1342.95        500.000        3341.39     
  1339.74        500.000        3341.82     
  1336.54        500.000        3342.26     
  1333.33        500.000        3339.55     
  1330.13        500.000        3339.98     
  1326.92        500.000        3340.41     
  1323.72        500.000        3340.83     
  1320.51        500.000        3341.26     
  1317.31        500.000        3341.69     
  1314.10        500.000        3342.12     
  1310.90        500.000        3342.54     
  1307.69        500.000        3340.24     
  1304.49        500.000        3340.66     
  1301.28        500.000        3340.47     
  1298.08        500.000        3335.42     
  1294.87        500.000        3335.79     
  1291.67        500.000        3336.21     
  1288.46        500.000        3336.63     
  1285.26        500.000        3337.05     
  1282.05        500.000        3337.24     
  1278.85        500.000        3337.66     
  1275.64        500.000        3338.08     
  1272.44        500.000        3338.50     
  1269.23        500.000        3338.92     
  1266.03        500.000        3339.34     
  1262.82        500.000        3339.76     
  1259.62        500.000        3340.18     
  1256.41        500.000        3340.15     
  1253.21        500.000        3340.57     
  1250.00        500.000        3340.99     
  1246.79        500.000        3341.41     
  1243.59        500.000        3341.83     
  1240.38        500.000        3342.25     
  1237.18        500.000        3342.66     
  1233.97        500.000        3343.08     
  1230.77        500.000        3343.09     
  1227.56        500.000        3343.51     
  1224.36        500.000        3343.93     
  1221.15        500.000        3344.34     
  1217.95        500.000        3344.76     
  1214.74        500.000        3345.17     
  1211.54        500.000        3345.59     
  1208.33        500.000        3346.00     
  1205.13        500.000        3346.04     
  1201.92        500.000        3346.45     
  1198.72        500.000        3346.87     
  1195.51        500.000        3347.28     
  1192.31        500.000        3347.70     
  1189.10        500.000        3348.11     
  1185.90        500.000        3348.52     
  1182.69        500.000        3348.94     
  1179.49        500.000        3349.00     
  1176.28        500.000        3349.41     
  1173.08        500.000        3349.83     
  1169.87        500.000        3350.24     
  1166.67        500.000        3350.65     
  1163.46        500.000        3351.06     
  1160.26        500.000        3351.47     
  1157.05        500.000        3351.88     
  1153.85        500.000        3351.98     
  1150.64        500.000        3352.39     
  1147.44        500.000        3352.80     
  1144.23        500.000        3353.20     
  1141.03        500.000        3353.61     
  1137.82        500.000        3354.02     
  1134.62        500.000        3354.43     
  1131.41        500.000        3354.84     
  1128.21        500.000        3354.96     
  1125.00        500.000        3355.37     
  1121.79        500.000        3355.78     
  1118.59        500.000        3356.19     
  1115.38        500.000        3356.59     
  1112.18        500.000        3357.00     
  1108.97        500.000        3357.41     
  1105.77        500.000        3357.81     
  1102.56        500.000        3357.97     
  1099.36        500.000        3358.37     
  1096.15        500.000        3358.78     
  1092.95        500.000        3359.18     
  1089.74        500.000        3359.59     
  1086.54        500.000        3359.99     
  1083.33        500.000        3360.40     
  1080.13        500.000        3360.80     
  1076.92        500.000        3360.99     
  1073.72        500.000        3361.39     
  1070.51        500.000        3361.79     
  1067.31        500.000        3362.20     
  1064.10        500.000        3362.50     
  1060.90        500.000        3362.88     
  1057.69        500.000        3363.27     
  1054.49        500.000        3363.67     
  1051.28        500.000        3364.05     
  1048.08        500.000        3364.45     
  1044.87        500.000        3364.85     
  1041.67        500.000        3365.25     
  1038.46        500.000        3365.65     
  1035.26        500.000        3366.05     
  1032.05        500.000        3366.45     
  1028.85        500.000        3366.85     
  1025.64        500.000        3367.04     
  1022.44        500.000        3367.44     
  1019.23        500.000        3367.84     
  1016.03        500.000        3368.24     
  1012.82        500.000        3368.63     
  1009.62        500.000        3369.03     
  1006.41        500.000        3369.43     
  1003.21        500.000        3369.83     
  1000.00        500.000        3370.06     
