|6.6.6
Archiving\03_Data\DeqLP/QFM_m4.25/K22/K22_6.tab                       
           1
T(K)    
  0.000000000000000E+000
  0.000000000000000E+000
           0
           3
T(K)           P(bar)         rho,kg/m3     
  2000.00        500.000        8099.88     
  1996.79        500.000        8101.72     
  1993.59        500.000        8103.55     
  1990.38        500.000        8105.38     
  1987.18        500.000        8107.21     
  1983.97        500.000        8109.03     
  1980.77        500.000        8110.86     
  1977.56        500.000        8112.68     
  1974.36        500.000        8114.50     
  1971.15        500.000        8116.32     
  1967.95        500.000        8118.14     
  1964.74        500.000        8119.96     
  1961.54        500.000        8121.78     
  1958.33        500.000        8123.59     
  1955.13        500.000        8125.41     
  1951.92        500.000        8127.22     
  1948.72        500.000        8129.03     
  1945.51        500.000        3287.10     
  1942.31        500.000        3178.88     
  1939.10        500.000        3159.11     
  1935.90        500.000        3150.74     
  1932.69        500.000        3148.29     
  1929.49        500.000        3146.86     
  1926.28        500.000        3145.99     
  1923.08        500.000        3145.47     
  1919.87        500.000        3147.01     
  1916.67        500.000        3148.34     
  1913.46        500.000        3149.52     
  1910.26        500.000        3150.59     
  1907.05        500.000        3151.57     
  1903.85        500.000        3152.49     
  1900.64        500.000        3153.34     
  1897.44        500.000        3154.15     
  1894.23        500.000        3155.82     
  1891.03        500.000        3157.83     
  1887.82        500.000        3160.33     
  1884.62        500.000        3162.65     
  1881.41        500.000        3165.31     
  1878.21        500.000        3167.79     
  1875.00        500.000        3170.12     
  1871.79        500.000        3172.31     
  1868.59        500.000        3174.66     
  1865.38        500.000        3176.89     
  1862.18        500.000        3179.01     
  1858.97        500.000        3181.02     
  1855.77        500.000        3183.01     
  1852.56        500.000        3184.92     
  1849.36        500.000        3187.19     
  1846.15        500.000        3189.27     
  1842.95        500.000        3191.47     
  1839.74        500.000        3193.59     
  1836.54        500.000        3195.63     
  1833.33        500.000        3197.60     
  1830.13        500.000        3199.50     
  1826.92        500.000        3201.34     
  1823.72        500.000        3203.13     
  1820.51        500.000        3204.85     
  1817.31        500.000        3206.84     
  1814.10        500.000        3208.78     
  1810.90        500.000        3210.66     
  1807.69        500.000        3212.48     
  1804.49        500.000        3214.26     
  1801.28        500.000        3216.00     
  1798.08        500.000        3217.69     
  1794.87        500.000        3219.34     
  1791.67        500.000        3221.14     
  1788.46        500.000        3222.91     
  1785.26        500.000        3224.63     
  1782.05        500.000        3226.31     
  1778.85        500.000        3227.96     
  1775.64        500.000        3229.58     
  1772.44        500.000        3231.16     
  1769.23        500.000        3232.71     
  1766.03        500.000        3234.34     
  1762.82        500.000        3235.93     
  1759.62        500.000        3237.50     
  1756.41        500.000        3239.04     
  1753.21        500.000        3240.55     
  1750.00        500.000        3242.04     
  1746.79        500.000        3243.50     
  1743.59        500.000        3244.93     
  1740.38        500.000        3246.37     
  1737.18        500.000        3247.79     
  1733.97        500.000        3249.18     
  1730.77        500.000        3250.56     
  1727.56        500.000        3251.91     
  1724.36        500.000        3253.25     
  1721.15        500.000        3254.56     
  1717.95        500.000        3255.86     
  1714.74        500.000        3257.13     
  1711.54        500.000        3258.38     
  1708.33        500.000        3259.61     
  1705.13        500.000        3260.83     
  1701.92        500.000        3262.04     
  1698.72        500.000        3263.23     
  1695.51        500.000        3264.41     
  1692.31        500.000        3265.57     
  1689.10        500.000        3266.67     
  1685.90        500.000        3267.76     
  1682.69        500.000        3268.83     
  1679.49        500.000        3269.90     
  1676.28        500.000        3270.95     
  1673.08        500.000        3271.99     
  1669.87        500.000        3273.03     
  1666.67        500.000        3274.05     
  1663.46        500.000        3275.00     
  1660.26        500.000        3275.95     
  1657.05        500.000        3276.88     
  1653.85        500.000        3277.81     
  1650.64        500.000        3278.74     
  1647.44        500.000        3279.65     
  1644.23        500.000        3280.56     
  1641.03        500.000        3281.46     
  1637.82        500.000        3282.31     
  1634.62        500.000        3283.15     
  1631.41        500.000        3283.98     
  1628.21        500.000        3284.82     
  1625.00        500.000        3285.61     
  1621.79        500.000        3286.40     
  1618.59        500.000        3287.07     
  1615.38        500.000        3286.13     
  1612.18        500.000        3285.50     
  1608.97        500.000        3284.91     
  1605.77        500.000        3284.34     
  1602.56        500.000        3283.81     
  1599.36        500.000        3283.30     
  1596.15        500.000        3282.83     
  1592.95        500.000        3282.37     
  1589.74        500.000        3281.95     
  1586.54        500.000        3281.79     
  1583.33        500.000        3281.65     
  1580.13        500.000        3281.52     
  1576.92        500.000        3281.40     
  1573.72        500.000        3281.30     
  1570.51        500.000        3281.20     
  1567.31        500.000        3281.11     
  1564.10        500.000        3281.04     
  1560.90        500.000        3281.09     
  1557.69        500.000        3281.15     
  1554.49        500.000        3281.22     
  1551.28        500.000        3281.29     
  1548.08        500.000        3281.37     
  1544.87        500.000        3281.45     
  1541.67        500.000        3281.54     
  1538.46        500.000        3281.63     
  1535.26        500.000        3281.79     
  1532.05        500.000        3281.95     
  1528.85        500.000        3282.11     
  1525.64        500.000        3282.28     
  1522.44        500.000        3282.45     
  1519.23        500.000        3282.62     
  1516.03        500.000        3282.80     
  1512.82        500.000        3282.98     
  1509.62        500.000        3283.19     
  1506.41        500.000        3283.41     
  1503.21        500.000        3283.63     
  1500.00        500.000        3283.85     
  1496.79        500.000        3284.07     
  1493.59        500.000        3284.30     
  1490.38        500.000        3284.53     
  1487.18        500.000        3284.76     
  1483.97        500.000        3285.01     
  1480.77        500.000        3285.26     
  1477.56        500.000        3285.53     
  1474.36        500.000        3285.84     
  1471.15        500.000        3286.18     
  1467.95        500.000        3286.53     
  1464.74        500.000        3286.88     
  1461.54        500.000        3287.23     
  1458.33        500.000        3287.61     
  1455.13        500.000        3287.99     
  1451.92        500.000        3288.33     
  1448.72        500.000        3288.68     
  1445.51        500.000        3289.12     
  1442.31        500.000        3289.56     
  1439.10        500.000        3290.00     
  1435.90        500.000        3290.15     
  1432.69        500.000        3290.54     
  1429.49        500.000        3290.70     
  1426.28        500.000        3291.14     
  1423.08        500.000        3289.10     
  1419.87        500.000        3289.54     
  1416.67        500.000        3289.98     
  1413.46        500.000        3290.41     
  1410.26        500.000        3286.93     
  1407.05        500.000        3287.37     
  1403.85        500.000        3287.80     
  1400.64        500.000        3288.24     
  1397.44        500.000        3288.67     
  1394.23        500.000        3289.10     
  1391.03        500.000        3289.54     
  1387.82        500.000        3289.97     
  1384.62        500.000        3284.73     
  1381.41        500.000        3285.16     
  1378.21        500.000        3285.59     
  1375.00        500.000        3286.02     
  1371.79        500.000        3286.45     
  1368.59        500.000        3286.88     
  1365.38        500.000        3287.30     
  1362.18        500.000        3287.73     
  1358.97        500.000        3283.85     
  1355.77        500.000        3284.27     
  1352.56        500.000        3284.70     
  1349.36        500.000        3285.12     
  1346.15        500.000        3285.55     
  1342.95        500.000        3285.97     
  1339.74        500.000        3286.39     
  1336.54        500.000        3286.82     
  1333.33        500.000        3283.64     
  1330.13        500.000        3284.06     
  1326.92        500.000        3284.48     
  1323.72        500.000        3284.90     
  1320.51        500.000        3285.32     
  1317.31        500.000        3285.74     
  1314.10        500.000        3286.16     
  1310.90        500.000        3286.58     
  1307.69        500.000        3283.90     
  1304.49        500.000        3284.32     
  1301.28        500.000        3284.74     
  1298.08        500.000        3285.16     
  1294.87        500.000        3284.19     
  1291.67        500.000        3284.60     
  1288.46        500.000        3284.38     
  1285.26        500.000        3284.48     
  1282.05        500.000        3275.20     
  1278.85        500.000        3275.61     
  1275.64        500.000        3276.02     
  1272.44        500.000        3276.43     
  1269.23        500.000        3276.84     
  1266.03        500.000        3277.25     
  1262.82        500.000        3277.66     
  1259.62        500.000        3278.07     
  1256.41        500.000        3278.11     
  1253.21        500.000        3278.52     
  1250.00        500.000        3278.93     
  1246.79        500.000        3279.34     
  1243.59        500.000        3279.74     
  1240.38        500.000        3280.15     
  1237.18        500.000        3280.56     
  1233.97        500.000        3280.97     
  1230.77        500.000        3281.03     
  1227.56        500.000        3281.44     
  1224.36        500.000        3281.85     
  1221.15        500.000        3282.25     
  1217.95        500.000        3282.66     
  1214.74        500.000        3283.07     
  1211.54        500.000        3283.47     
  1208.33        500.000        3283.88     
  1205.13        500.000        3283.97     
  1201.92        500.000        3284.37     
  1198.72        500.000        3284.78     
  1195.51        500.000        3285.18     
  1192.31        500.000        3285.59     
  1189.10        500.000        3285.99     
  1185.90        500.000        3286.39     
  1182.69        500.000        3286.80     
  1179.49        500.000        3286.92     
  1176.28        500.000        3287.32     
  1173.08        500.000        3287.72     
  1169.87        500.000        3288.13     
  1166.67        500.000        3288.53     
  1163.46        500.000        3288.93     
  1160.26        500.000        3289.33     
  1157.05        500.000        3289.73     
  1153.85        500.000        3289.88     
  1150.64        500.000        3290.28     
  1147.44        500.000        3290.68     
  1144.23        500.000        3291.08     
  1141.03        500.000        3291.48     
  1137.82        500.000        3291.88     
  1134.62        500.000        3292.28     
  1131.41        500.000        3292.68     
  1128.21        500.000        3292.85     
  1125.00        500.000        3293.25     
  1121.79        500.000        3293.65     
  1118.59        500.000        3294.05     
  1115.38        500.000        3294.44     
  1112.18        500.000        3294.84     
  1108.97        500.000        3295.24     
  1105.77        500.000        3295.64     
  1102.56        500.000        3295.84     
  1099.36        500.000        3296.23     
  1096.15        500.000        3296.63     
  1092.95        500.000        3297.02     
  1089.74        500.000        3297.42     
  1086.54        500.000        3297.82     
  1083.33        500.000        3298.21     
  1080.13        500.000        3298.61     
  1076.92        500.000        3298.83     
  1073.72        500.000        3299.23     
  1070.51        500.000        3299.62     
  1067.31        500.000        3300.02     
  1064.10        500.000        3300.41     
  1060.90        500.000        3300.80     
  1057.69        500.000        3301.20     
  1054.49        500.000        3301.59     
  1051.28        500.000        3301.85     
  1048.08        500.000        3302.25     
  1044.87        500.000        3302.64     
  1041.67        500.000        3303.03     
  1038.46        500.000        3303.42     
  1035.26        500.000        3303.81     
  1032.05        500.000        3304.20     
  1028.85        500.000        3304.59     
  1025.64        500.000        3304.89     
  1022.44        500.000        3305.28     
  1019.23        500.000        3305.67     
  1016.03        500.000        3306.06     
  1012.82        500.000        3306.45     
  1009.62        500.000        3306.84     
  1006.41        500.000        3307.23     
  1003.21        500.000        3307.62     
  1000.00        500.000        3307.95     
