|6.6.6
Archiving\03_Data\fracLP/QFM/LAR/LAR_2.tab                                
           1
T(K)    
  0.000000000000000E+000
  0.000000000000000E+000
           0
           3
T(K)           P(bar)         Sp(TH),kg     
  2000.00        500.000                 NaN
  1997.49        500.000                 NaN
  1994.99        500.000                 NaN
  1992.48        500.000                 NaN
  1989.97        500.000                 NaN
  1987.47        500.000                 NaN
  1984.96        500.000                 NaN
  1982.46        500.000                 NaN
  1979.95        500.000                 NaN
  1977.44        500.000                 NaN
  1974.94        500.000                 NaN
  1972.43        500.000                 NaN
  1969.92        500.000                 NaN
  1967.42        500.000                 NaN
  1964.91        500.000                 NaN
  1962.41        500.000                 NaN
  1959.90        500.000                 NaN
  1957.39        500.000                 NaN
  1954.89        500.000                 NaN
  1952.38        500.000                 NaN
  1949.87        500.000                 NaN
  1947.37        500.000                 NaN
  1944.86        500.000                 NaN
  1942.36        500.000                 NaN
  1939.85        500.000                 NaN
  1937.34        500.000                 NaN
  1934.84        500.000                 NaN
  1932.33        500.000                 NaN
  1929.82        500.000                 NaN
  1927.32        500.000                 NaN
  1924.81        500.000                 NaN
  1922.31        500.000                 NaN
  1919.80        500.000                 NaN
  1917.29        500.000                 NaN
  1914.79        500.000                 NaN
  1912.28        500.000                 NaN
  1909.77        500.000                 NaN
  1907.27        500.000                 NaN
  1904.76        500.000                 NaN
  1902.26        500.000                 NaN
  1899.75        500.000                 NaN
  1897.24        500.000                 NaN
  1894.74        500.000                 NaN
  1892.23        500.000                 NaN
  1889.72        500.000                 NaN
  1887.22        500.000                 NaN
  1884.71        500.000                 NaN
  1882.21        500.000                 NaN
  1879.70        500.000                 NaN
  1877.19        500.000                 NaN
  1874.69        500.000                 NaN
  1872.18        500.000                 NaN
  1869.67        500.000                 NaN
  1867.17        500.000                 NaN
  1864.66        500.000                 NaN
  1862.16        500.000                 NaN
  1859.65        500.000                 NaN
  1857.14        500.000                 NaN
  1854.64        500.000                 NaN
  1852.13        500.000                 NaN
  1849.62        500.000                 NaN
  1847.12        500.000                 NaN
  1844.61        500.000                 NaN
  1842.11        500.000                 NaN
  1839.60        500.000                 NaN
  1837.09        500.000                 NaN
  1834.59        500.000                 NaN
  1832.08        500.000                 NaN
  1829.57        500.000                 NaN
  1827.07        500.000                 NaN
  1824.56        500.000                 NaN
  1822.06        500.000                 NaN
  1819.55        500.000                 NaN
  1817.04        500.000                 NaN
  1814.54        500.000                 NaN
  1812.03        500.000                 NaN
  1809.52        500.000                 NaN
  1807.02        500.000                 NaN
  1804.51        500.000                 NaN
  1802.01        500.000                 NaN
  1799.50        500.000                 NaN
  1796.99        500.000                 NaN
  1794.49        500.000                 NaN
  1791.98        500.000                 NaN
  1789.47        500.000                 NaN
  1786.97        500.000                 NaN
  1784.46        500.000                 NaN
  1781.95        500.000                 NaN
  1779.45        500.000                 NaN
  1776.94        500.000                 NaN
  1774.44        500.000                 NaN
  1771.93        500.000                 NaN
  1769.42        500.000                 NaN
  1766.92        500.000                 NaN
  1764.41        500.000                 NaN
  1761.90        500.000                 NaN
  1759.40        500.000                 NaN
  1756.89        500.000                 NaN
  1754.39        500.000                 NaN
  1751.88        500.000                 NaN
  1749.37        500.000                 NaN
  1746.87        500.000                 NaN
  1744.36        500.000                 NaN
  1741.85        500.000                 NaN
  1739.35        500.000                 NaN
  1736.84        500.000                 NaN
  1734.34        500.000                 NaN
  1731.83        500.000                 NaN
  1729.32        500.000                 NaN
  1726.82        500.000                 NaN
  1724.31        500.000                 NaN
  1721.80        500.000                 NaN
  1719.30        500.000                 NaN
  1716.79        500.000                 NaN
  1714.29        500.000                 NaN
  1711.78        500.000                 NaN
  1709.27        500.000                 NaN
  1706.77        500.000                 NaN
  1704.26        500.000                 NaN
  1701.75        500.000                 NaN
  1699.25        500.000                 NaN
  1696.74        500.000                 NaN
  1694.24        500.000                 NaN
  1691.73        500.000                 NaN
  1689.22        500.000                 NaN
  1686.72        500.000                 NaN
  1684.21        500.000                 NaN
  1681.70        500.000                 NaN
  1679.20        500.000                 NaN
  1676.69        500.000       0.484470E-005
  1674.19        500.000       0.137138E-004
  1671.68        500.000       0.137179E-004
  1669.17        500.000       0.136276E-004
  1666.67        500.000       0.134302E-004
  1664.16        500.000       0.133666E-004
  1661.65        500.000       0.231594E-004
  1659.15        500.000       0.332535E-005
  1656.64        500.000       0.129967E-004
  1654.14        500.000       0.129351E-004
  1651.63        500.000       0.130247E-004
  1649.12        500.000       0.125238E-004
  1646.62        500.000       0.126442E-004
  1644.11        500.000       0.124684E-004
  1641.60        500.000       0.124547E-004
  1639.10        500.000       0.122565E-004
  1636.59        500.000       0.121806E-004
  1634.09        500.000       0.120940E-004
  1631.58        500.000       0.119989E-004
  1629.07        500.000       0.118851E-004
  1626.57        500.000       0.117888E-004
  1624.06        500.000       0.117107E-004
  1621.55        500.000       0.115778E-004
  1619.05        500.000       0.114787E-004
  1616.54        500.000       0.114016E-004
  1614.04        500.000       0.112847E-004
  1611.53        500.000       0.112030E-004
  1609.02        500.000       0.111057E-004
  1606.52        500.000       0.110066E-004
  1604.01        500.000       0.109381E-004
  1601.50        500.000       0.108395E-004
  1599.00        500.000       0.106909E-004
  1596.49        500.000       0.107517E-004
  1593.98        500.000       0.109333E-004
  1591.48        500.000       0.104896E-004
  1588.97        500.000       0.105167E-004
  1586.47        500.000       0.104090E-004
  1583.96        500.000       0.103072E-004
  1581.45        500.000       0.101866E-004
  1578.95        500.000       0.100798E-004
  1576.44        500.000       0.996599E-005
  1573.93        500.000       0.986819E-005
  1571.43        500.000       0.974315E-005
  1568.92        500.000       0.100471E-004
  1566.42        500.000       0.101297E-004
  1563.91        500.000       0.462052E-005
  1561.40        500.000       0.130731E-004
  1558.90        500.000       0.919585E-005
  1556.39        500.000       0.909146E-005
  1553.88        500.000       0.899780E-005
  1551.38        500.000       0.887727E-005
  1548.87        500.000       0.876865E-005
  1546.37        500.000       0.866135E-005
  1543.86        500.000       0.861452E-005
  1541.35        500.000       0.840990E-005
  1538.85        500.000       0.837521E-005
  1536.34        500.000       0.820853E-005
  1533.83        500.000       0.815890E-005
  1531.33        500.000       0.805986E-005
  1528.82        500.000       0.794524E-005
  1526.32        500.000       0.786224E-005
  1523.81        500.000       0.775788E-005
  1521.30        500.000       0.773196E-005
  1518.80        500.000       0.751643E-005
  1516.29        500.000       0.745463E-005
  1513.78        500.000       0.598011E-005
  1511.28        500.000       0.869498E-005
  1508.77        500.000       0.719947E-005
  1506.27        500.000       0.707403E-005
  1503.76        500.000       0.700011E-005
  1501.25        500.000       0.692391E-005
  1498.75        500.000       0.310878E-006
  1496.24        500.000                 NaN
  1493.73        500.000                 NaN
  1491.23        500.000                 NaN
  1488.72        500.000                 NaN
  1486.22        500.000                 NaN
  1483.71        500.000                 NaN
  1481.20        500.000                 NaN
  1478.70        500.000                 NaN
  1476.19        500.000                 NaN
  1473.68        500.000                 NaN
  1471.18        500.000                 NaN
  1468.67        500.000                 NaN
  1466.17        500.000                 NaN
  1463.66        500.000                 NaN
  1461.15        500.000                 NaN
  1458.65        500.000                 NaN
  1456.14        500.000                 NaN
  1453.63        500.000                 NaN
  1451.13        500.000                 NaN
  1448.62        500.000                 NaN
  1446.12        500.000                 NaN
  1443.61        500.000                 NaN
  1441.10        500.000                 NaN
  1438.60        500.000                 NaN
  1436.09        500.000                 NaN
  1433.58        500.000                 NaN
  1431.08        500.000                 NaN
  1428.57        500.000                 NaN
  1426.07        500.000                 NaN
  1423.56        500.000                 NaN
  1421.05        500.000                 NaN
  1418.55        500.000                 NaN
  1416.04        500.000                 NaN
  1413.53        500.000                 NaN
  1411.03        500.000                 NaN
  1408.52        500.000                 NaN
  1406.02        500.000                 NaN
  1403.51        500.000                 NaN
  1401.00        500.000                 NaN
  1398.50        500.000                 NaN
  1395.99        500.000                 NaN
  1393.48        500.000                 NaN
  1390.98        500.000                 NaN
  1388.47        500.000                 NaN
  1385.96        500.000                 NaN
  1383.46        500.000                 NaN
  1380.95        500.000                 NaN
  1378.45        500.000                 NaN
  1375.94        500.000                 NaN
  1373.43        500.000                 NaN
  1370.93        500.000                 NaN
  1368.42        500.000                 NaN
  1365.91        500.000                 NaN
  1363.41        500.000                 NaN
  1360.90        500.000                 NaN
  1358.40        500.000                 NaN
  1355.89        500.000                 NaN
  1353.38        500.000                 NaN
  1350.88        500.000                 NaN
  1348.37        500.000                 NaN
  1345.86        500.000                 NaN
  1343.36        500.000       0.993378E-006
  1340.85        500.000       0.222091E-004
  1338.35        500.000       0.380937E-004
  1335.84        500.000       0.667246E-004
  1333.33        500.000       0.103393E-003
  1330.83        500.000       0.122056E-003
  1328.32        500.000       0.128318E-003
  1325.81        500.000       0.127921E-003
  1323.31        500.000       0.124818E-003
  1320.80        500.000       0.119548E-003
  1318.30        500.000       0.114179E-003
  1315.79        500.000       0.108401E-003
  1313.28        500.000       0.103267E-003
  1310.78        500.000       0.982258E-004
  1308.27        500.000       0.933794E-004
  1305.76        500.000       0.886881E-004
  1303.26        500.000       0.843561E-004
  1300.75        500.000       0.801751E-004
  1298.25        500.000       0.763622E-004
  1295.74        500.000       0.727592E-004
  1293.23        500.000       0.692924E-004
  1290.73        500.000       0.659706E-004
  1288.22        500.000       0.629410E-004
  1285.71        500.000       0.599532E-004
  1283.21        500.000       0.572076E-004
  1280.70        500.000       0.545793E-004
  1278.20        500.000       0.520749E-004
  1275.69        500.000       0.497078E-004
  1273.18        500.000       0.473973E-004
  1270.68        500.000       0.452136E-004
  1268.17        500.000       0.431927E-004
  1265.66        500.000       0.411905E-004
  1263.16        500.000       0.439587E-004
  1260.65        500.000       0.112058E-003
  1258.15        500.000       0.910964E-004
  1255.64        500.000       0.763450E-004
  1253.13        500.000       0.653074E-004
  1250.63        500.000       0.569637E-004
  1248.12        500.000       0.502042E-004
  1245.61        500.000       0.447070E-004
  1243.11        500.000       0.402201E-004
  1240.60        500.000       0.363482E-004
  1238.10        500.000       0.330223E-004
  1235.59        500.000       0.301100E-004
  1233.08        500.000       0.275381E-004
  1230.58        500.000       0.251788E-004
  1228.07        500.000       0.231624E-004
  1225.56        500.000       0.212818E-004
  1223.06        500.000       0.195870E-004
  1220.55        500.000       0.180054E-004
  1218.05        500.000       0.166311E-004
  1215.54        500.000       0.153268E-004
  1213.03        500.000       0.141360E-004
  1210.53        500.000       0.130975E-004
  1208.02        500.000       0.121940E-004
  1205.51        500.000       0.199613E-004
  1203.01        500.000       0.462887E-004
  1200.50        500.000       0.349220E-004
  1197.99        500.000       0.370095E-004
  1195.49        500.000       0.651049E-005
  1192.98        500.000       0.211768E-004
  1190.48        500.000       0.490549E-010
  1187.97        500.000       0.314650E-004
  1185.46        500.000       0.385115E-004
  1182.96        500.000       0.385212E-004
  1180.45        500.000       0.383511E-004
  1177.94        500.000       0.380854E-004
  1175.44        500.000       0.378789E-004
  1172.93        500.000       0.381261E-004
  1170.43        500.000       0.375163E-004
  1167.92        500.000       0.373892E-004
  1165.41        500.000       0.372657E-004
  1162.91        500.000       0.371721E-004
  1160.40        500.000       0.371062E-004
  1157.89        500.000       0.369360E-004
  1155.39        500.000       0.368116E-004
  1152.88        500.000       0.366894E-004
  1150.38        500.000       0.365699E-004
  1147.87        500.000       0.364509E-004
  1145.36        500.000       0.363017E-004
  1142.86        500.000       0.361732E-004
  1140.35        500.000       0.361954E-004
  1137.84        500.000       0.359786E-004
  1135.34        500.000       0.358516E-004
  1132.83        500.000       0.357468E-004
  1130.33        500.000       0.356361E-004
  1127.82        500.000       0.355296E-004
  1125.31        500.000       0.354293E-004
  1122.81        500.000       0.353270E-004
  1120.30        500.000       0.352299E-004
  1117.79        500.000       0.351345E-004
  1115.29        500.000       0.350418E-004
  1112.78        500.000       0.349610E-004
  1110.28        500.000       0.348796E-004
  1107.77        500.000       0.347498E-004
  1105.26        500.000       0.346539E-004
  1102.76        500.000       0.345691E-004
  1100.25        500.000       0.335645E-004
  1097.74        500.000       0.335645E-004
  1095.24        500.000       0.332530E-004
  1092.73        500.000       0.332530E-004
  1090.23        500.000       0.332530E-004
  1087.72        500.000       0.324727E-004
  1085.21        500.000       0.324727E-004
  1082.71        500.000       0.324727E-004
  1080.20        500.000       0.324727E-004
  1077.69        500.000       0.324727E-004
  1075.19        500.000       0.324727E-004
  1072.68        500.000       0.324727E-004
  1070.18        500.000       0.324727E-004
  1067.67        500.000       0.324727E-004
  1065.16        500.000       0.320921E-004
  1062.66        500.000       0.320921E-004
  1060.15        500.000       0.320921E-004
  1057.64        500.000       0.316879E-004
  1055.14        500.000       0.298586E-004
  1052.63        500.000       0.296255E-004
  1050.13        500.000       0.293945E-004
  1047.62        500.000       0.291637E-004
  1045.11        500.000       0.290614E-004
  1042.61        500.000       0.288531E-004
  1040.10        500.000       0.286451E-004
  1037.59        500.000       0.282507E-004
  1035.09        500.000       0.282458E-004
  1032.58        500.000       0.280463E-004
  1030.08        500.000       0.275756E-004
  1027.57        500.000       0.273516E-004
  1025.06        500.000       0.271256E-004
  1022.56        500.000       0.269044E-004
  1020.05        500.000       0.266821E-004
  1017.54        500.000       0.264597E-004
  1015.04        500.000       0.262387E-004
  1012.53        500.000       0.260194E-004
  1010.03        500.000       0.257987E-004
  1007.52        500.000       0.255780E-004
  1005.01        500.000       0.253581E-004
  1002.51        500.000       0.251418E-004
  1000.00        500.000       0.249147E-004
