|6.6.6
Archiving\03_Data\eqfracLP/QFM_m0.25/YM20/YM20_6.tab                    
           1
T(K)    
  0.000000000000000E+000
  0.000000000000000E+000
           0
           3
T(K)           P(bar)         rho,kg/m3     
  1538.46        500.000        3299.22     
  1537.11        500.000        3240.47     
  1535.76        500.000        3233.15     
  1534.41        500.000        3231.64     
  1533.06        500.000        3232.61     
  1531.71        500.000        3233.11     
  1530.36        500.000        3233.06     
  1529.01        500.000        3234.62     
  1527.66        500.000        3233.66     
  1526.31        500.000        3234.42     
  1524.96        500.000        2777.83     
  1523.62        500.000        3236.94     
  1522.27        500.000        3238.64     
  1520.92        500.000        3235.58     
  1519.57        500.000        3233.70     
  1518.22        500.000        3238.53     
  1516.87        500.000        3235.43     
  1515.52        500.000        3236.25     
  1514.17        500.000        3238.01     
  1512.82        500.000        3236.97     
  1511.47        500.000        3237.54     
  1510.12        500.000        3237.72     
  1508.77        500.000        3243.82     
  1507.42        500.000        3236.91     
  1506.07        500.000        3246.42     
  1504.72        500.000        3236.97     
  1503.37        500.000        3237.82     
  1502.02        500.000        3240.11     
  1500.67        500.000        3240.93     
  1499.32        500.000        3239.16     
  1497.97        500.000        3240.11     
  1496.62        500.000        3240.20     
  1495.28        500.000        3242.66     
  1493.93        500.000        3240.79     
  1492.58        500.000        3326.73     
  1491.23        500.000        3241.33     
  1489.88        500.000        3245.26     
  1488.53        500.000        3253.00     
  1487.18        500.000        3242.48     
  1485.83        500.000        3242.56     
  1484.48        500.000        3243.10     
  1483.13        500.000        3248.71     
  1481.78        500.000        3244.53     
  1480.43        500.000        3244.28     
  1479.08        500.000        3245.29     
  1477.73        500.000        3245.08     
  1476.38        500.000        3246.01     
  1475.03        500.000        3245.82     
  1473.68        500.000        3246.54     
  1472.33        500.000        3246.74     
  1470.98        500.000        3247.60     
  1469.63        500.000        3247.53     
  1468.28        500.000        3248.19     
  1466.94        500.000        3248.49     
  1465.59        500.000        2760.72     
  1464.24        500.000        3249.49     
  1462.89        500.000        3249.86     
  1461.54        500.000        3250.57     
  1460.19        500.000        3251.03     
  1458.84        500.000        3250.04     
  1457.49        500.000        3251.66     
  1456.14        500.000        3252.62     
  1454.79        500.000        3252.33     
  1453.44        500.000        3252.85     
  1452.09        500.000        3236.76     
  1450.74        500.000        3234.29     
  1449.39        500.000        3235.23     
  1448.04        500.000        3235.97     
  1446.69        500.000        3236.63     
  1445.34        500.000        3238.03     
  1443.99        500.000        3238.58     
  1442.64        500.000        3239.65     
  1441.29        500.000        3240.13     
  1439.94        500.000        3241.00     
  1438.60        500.000        3241.93     
  1437.25        500.000        3243.10     
  1435.90        500.000        3243.55     
  1434.55        500.000        3242.42     
  1433.20        500.000        3241.39     
  1431.85        500.000        3242.40     
  1430.50        500.000        3243.23     
  1429.15        500.000        3244.25     
  1427.80        500.000        3245.08     
  1426.45        500.000        3246.14     
  1425.10        500.000        3247.14     
  1423.75        500.000        3248.11     
  1422.40        500.000        3249.11     
  1421.05        500.000        3249.73     
  1419.70        500.000        3251.06     
  1418.35        500.000        3252.09     
  1417.00        500.000        3107.94     
  1415.65        500.000        3086.69     
  1414.30        500.000        3087.62     
  1412.95        500.000        3088.74     
  1411.60        500.000        3089.79     
  1410.26        500.000        3090.88     
  1408.91        500.000        3091.86     
  1407.56        500.000        3092.71     
  1406.21        500.000        3094.06     
  1404.86        500.000        3095.03     
  1403.51        500.000        3096.19     
  1402.16        500.000        3097.13     
  1400.81        500.000        3098.20     
  1399.46        500.000        3099.17     
  1398.11        500.000        3100.20     
  1396.76        500.000        3101.83     
  1395.41        500.000        3102.41     
  1394.06        500.000        3103.37     
  1392.71        500.000        3104.39     
  1391.36        500.000        3111.17     
  1390.01        500.000        3106.49     
  1388.66        500.000        3108.52     
  1387.31        500.000        3114.39     
  1385.96        500.000        3114.35     
  1384.61        500.000        3115.46     
  1383.26        500.000        3116.62     
  1381.92        500.000        3117.60     
  1380.57        500.000        3118.92     
  1379.22        500.000        3119.19     
  1377.87        500.000        3121.71     
  1376.52        500.000        3122.67     
  1375.17        500.000        3123.82     
  1373.82        500.000        3125.25     
  1372.47        500.000        3126.35     
  1371.12        500.000        3127.72     
  1369.77        500.000        3130.21     
  1368.42        500.000        3130.39     
  1367.07        500.000        3131.38     
  1365.72        500.000        3132.75     
  1364.37        500.000        3134.05     
  1363.02        500.000        3135.37     
  1361.67        500.000        3136.62     
  1360.32        500.000        3138.08     
  1358.97        500.000        3139.38     
  1357.62        500.000        3140.57     
  1356.27        500.000        3141.88     
  1354.92        500.000        3143.28     
  1353.58        500.000        3144.72     
  1352.23        500.000        3145.93     
  1350.88        500.000        3147.35     
  1349.53        500.000        3148.65     
  1348.18        500.000        3150.00     
  1346.83        500.000        3151.28     
  1345.48        500.000        3152.51     
  1344.13        500.000        3154.06     
  1342.78        500.000        3155.36     
  1341.43        500.000        3156.77     
  1340.08        500.000        3158.04     
  1338.73        500.000        3160.88     
  1337.38        500.000        3161.34     
  1336.03        500.000        3161.96     
  1334.68        500.000        3163.63     
  1333.33        500.000        3164.79     
  1331.98        500.000        3166.30     
  1330.63        500.000        3167.62     
  1329.28        500.000        3168.89     
  1327.93        500.000        3170.33     
  1326.58        500.000        3171.47     
  1325.24        500.000        3173.03     
  1323.89        500.000        3174.32     
  1322.54        500.000        3175.86     
  1321.19        500.000        3177.43     
  1319.84        500.000        3178.51     
  1318.49        500.000        3171.56     
  1317.14        500.000        3190.67     
  1315.79        500.000        3182.83     
  1314.44        500.000        3183.89     
  1313.09        500.000        3185.20     
  1311.74        500.000        3186.49     
  1310.39        500.000        3187.77     
  1309.04        500.000        3188.86     
  1307.69        500.000        3190.54     
  1306.34        500.000        3191.62     
  1304.99        500.000        3193.42     
  1303.64        500.000        3193.61     
  1302.29        500.000        3195.56     
  1300.94        500.000        3196.74     
  1299.59        500.000        3197.88     
  1298.24        500.000        3199.08     
  1296.90        500.000        3200.84     
  1295.55        500.000        3201.57     
  1294.20        500.000        3202.71     
  1292.85        500.000        3204.04     
  1291.50        500.000        3205.12     
  1290.15        500.000        3206.28     
  1288.80        500.000        3207.18     
  1287.45        500.000        3208.44     
  1286.10        500.000        3209.69     
  1284.75        500.000        3210.54     
  1283.40        500.000        2799.66     
  1282.05        500.000        2772.69     
  1280.70        500.000        2776.51     
  1279.35        500.000        2780.15     
  1278.00        500.000        2783.78     
  1276.65        500.000        2787.32     
  1275.30        500.000        2790.79     
  1273.95        500.000        2794.22     
  1272.60        500.000        2797.69     
  1271.25        500.000        2801.06     
  1269.90        500.000        2804.29     
  1268.56        500.000        2807.57     
  1267.21        500.000        2822.31     
  1265.86        500.000        2854.13     
  1264.51        500.000        2854.72     
  1263.16        500.000        2855.43     
  1261.81        500.000        2855.99     
  1260.46        500.000        2856.59     
  1259.11        500.000        2857.08     
  1257.76        500.000        2857.70     
  1256.41        500.000        2858.06     
  1255.06        500.000        2858.45     
  1253.71        500.000        2858.73     
  1252.36        500.000        2859.01     
  1251.01        500.000        2859.21     
  1249.66        500.000        2862.12     
  1248.31        500.000        2851.41     
  1246.96        500.000        2799.86     
  1245.61        500.000        3137.10     
  1244.26        500.000        2906.52     
  1242.91        500.000        2889.24     
  1241.56        500.000        2823.52     
  1240.22        500.000        2825.87     
  1238.87        500.000        3163.64     
  1237.52        500.000        2843.36     
  1236.17        500.000        2747.20     
  1234.82        500.000        2868.01     
  1233.47        500.000        2851.37     
  1232.12        500.000        2854.08     
  1230.77        500.000        2853.24     
  1229.42        500.000        2864.18     
  1228.07        500.000        2840.99     
  1226.72        500.000        2864.52     
  1225.37        500.000        2864.25     
  1224.02        500.000        2815.58     
  1222.67        500.000        3015.04     
  1221.32        500.000        2870.59     
  1219.97        500.000        2889.88     
  1218.62        500.000        2824.44     
  1217.27        500.000        2955.26     
  1215.92        500.000        2864.36     
  1214.57        500.000        2796.25     
  1213.22        500.000        2904.02     
  1211.88        500.000        2865.41     
  1210.53        500.000        2818.49     
  1209.18        500.000        2830.41     
  1207.83        500.000        2937.34     
  1206.48        500.000        2783.46     
  1205.13        500.000        2932.82     
  1203.78        500.000        2784.46     
  1202.43        500.000        2775.44     
  1201.08        500.000        2862.36     
  1199.73        500.000        2882.21     
  1198.38        500.000        2701.77     
  1197.03        500.000        2826.81     
  1195.68        500.000        2744.91     
  1194.33        500.000        2787.38     
  1192.98        500.000        2684.24     
  1191.63        500.000        2830.58     
  1190.28        500.000        2656.11     
  1188.93        500.000        2655.59     
  1187.58        500.000        2642.93     
  1186.23        500.000        2634.33     
  1184.88        500.000        2627.66     
  1183.54        500.000        2627.71     
  1182.19        500.000        2627.77     
  1180.84        500.000        2627.84     
  1179.49        500.000        2627.86     
  1178.14        500.000        2627.91     
  1176.79        500.000        2628.07     
  1175.44        500.000        2628.12     
  1174.09        500.000        2628.17     
  1172.74        500.000        2628.22     
  1171.39        500.000        2628.28     
  1170.04        500.000        2628.33     
  1168.69        500.000        2628.38     
  1167.34        500.000        2628.42     
  1165.99        500.000        2628.48     
  1164.64        500.000        2628.40     
  1163.29        500.000        2628.58     
  1161.94        500.000        2628.62     
  1160.59        500.000        2628.67     
  1159.24        500.000        2628.72     
  1157.89        500.000        2628.77     
  1156.54        500.000        2628.82     
  1155.20        500.000        2628.87     
  1153.85        500.000        2628.92     
  1152.50        500.000        2628.97     
  1151.15        500.000        2629.02     
  1149.80        500.000        2629.09     
  1148.45        500.000        2629.14     
  1147.10        500.000        2629.19     
  1145.75        500.000        2629.24     
  1144.40        500.000        2629.29     
  1143.05        500.000        2629.34     
  1141.70        500.000        2629.41     
  1140.35        500.000        2629.44     
  1139.00        500.000        2629.51     
  1137.65        500.000        2629.56     
  1136.30        500.000        2629.61     
  1134.95        500.000        2629.66     
  1133.60        500.000        2629.71     
  1132.25        500.000        2629.76     
  1130.90        500.000        2629.79     
  1129.55        500.000        2629.86     
  1128.20        500.000        2629.91     
  1126.86        500.000        2629.96     
  1125.51        500.000        2630.01     
  1124.16        500.000        2630.06     
  1122.81        500.000        2630.11     
  1121.46        500.000        2630.17     
  1120.11        500.000        2630.22     
  1118.76        500.000        2630.27     
  1117.41        500.000        2630.33     
  1116.06        500.000        2630.39     
  1114.71        500.000        2630.46     
  1113.36        500.000        2630.51     
  1112.01        500.000        2630.58     
  1110.66        500.000        2630.64     
  1109.31        500.000        2630.70     
  1107.96        500.000        2630.78     
  1106.61        500.000        2630.84     
  1105.26        500.000        2630.91     
  1103.91        500.000        2630.97     
  1102.56        500.000        2631.03     
  1101.21        500.000        2631.10     
  1099.86        500.000        2631.16     
  1098.52        500.000        2631.22     
  1097.17        500.000        2631.29     
  1095.82        500.000        2631.35     
  1094.47        500.000        2631.41     
  1093.12        500.000        2631.47     
  1091.77        500.000        2631.54     
  1090.42        500.000        2631.60     
  1089.07        500.000        2631.66     
  1087.72        500.000        2631.72     
  1086.37        500.000        2631.79     
  1085.02        500.000        2631.85     
  1083.67        500.000        2631.91     
  1082.32        500.000        2631.97     
  1080.97        500.000        2632.03     
  1079.62        500.000        2632.09     
  1078.27        500.000        2632.15     
  1076.92        500.000        2632.21     
  1075.57        500.000        2632.30     
  1074.22        500.000        2632.42     
  1072.87        500.000        2632.53     
  1071.52        500.000        2632.65     
  1070.18        500.000        2632.77     
  1068.83        500.000        2632.88     
  1067.48        500.000        2633.00     
  1066.13        500.000        2633.11     
  1064.78        500.000        2633.23     
  1063.43        500.000        2633.26     
  1062.08        500.000        2633.45     
  1060.73        500.000        2633.57     
  1059.38        500.000        2633.67     
  1058.03        500.000        2633.82     
  1056.68        500.000        2634.31     
  1055.33        500.000        2634.37     
  1053.98        500.000        2634.58     
  1052.63        500.000        2634.79     
  1051.28        500.000        2634.98     
  1049.93        500.000        2635.17     
  1048.58        500.000        2635.35     
  1047.23        500.000        2635.54     
  1045.88        500.000        2635.72     
  1044.53        500.000        2635.89     
  1043.18        500.000        2635.68     
  1041.84        500.000        2636.94     
  1040.49        500.000        2637.41     
  1039.14        500.000        2637.41     
  1037.79        500.000        2636.66     
  1036.44        500.000        2636.80     
  1035.09        500.000        2636.94     
  1033.74        500.000        2637.07     
  1032.39        500.000        2637.97     
  1031.04        500.000        2638.02     
  1029.69        500.000        2638.06     
  1028.34        500.000        2637.58     
  1026.99        500.000        2637.70     
  1025.64        500.000        2637.81     
  1024.29        500.000        2637.92     
  1022.94        500.000        2638.04     
  1021.59        500.000        2638.14     
  1020.24        500.000        2638.25     
  1018.89        500.000        2638.47     
  1017.54        500.000        2638.49     
  1016.19        500.000        2638.54     
  1014.84        500.000        2638.62     
  1013.50        500.000        2638.64     
  1012.15        500.000        2638.71     
  1010.80        500.000        2638.72     
  1009.45        500.000        2638.78     
  1008.10        500.000        2638.81     
  1006.75        500.000        2638.92     
  1005.40        500.000        2638.97     
  1004.05        500.000        2639.02     
  1002.70        500.000        2639.07     
  1001.35        500.000        2639.12     
  1000.00        500.000        2639.17     
