|6.6.6
Archiving\03_Data\DeqfracLP/QFM_m2.75/WD94/WD94_6.tab                     
           1
T(K)    
  0.000000000000000E+000
  0.000000000000000E+000
           0
           3
T(K)           P(bar)         rho,kg/m3     
  1602.56        500.000        3247.29     
  1601.05        500.000        3244.13     
  1599.54        500.000        3242.91     
  1598.03        500.000        3246.24     
  1596.52        500.000        3245.69     
  1595.01        500.000        3245.84     
  1593.50        500.000        3246.24     
  1591.99        500.000        3246.72     
  1590.48        500.000        3247.51     
  1588.97        500.000        3248.19     
  1587.46        500.000        3248.55     
  1585.95        500.000        3248.39     
  1584.44        500.000        3250.78     
  1582.93        500.000        3250.15     
  1581.42        500.000        3250.70     
  1579.91        500.000        3250.86     
  1578.40        500.000        3251.76     
  1576.89        500.000        3252.31     
  1575.38        500.000        3252.86     
  1573.87        500.000        3253.15     
  1572.36        500.000        3253.47     
  1570.85        500.000        3254.33     
  1569.34        500.000        3254.92     
  1567.83        500.000        3255.01     
  1566.32        500.000        3255.94     
  1564.81        500.000        3254.74     
  1563.30        500.000        3258.14     
  1561.79        500.000        3257.64     
  1560.28        500.000        3257.69     
  1558.76        500.000        3258.81     
  1557.25        500.000        3269.01     
  1555.74        500.000        3255.97     
  1554.23        500.000        3256.21     
  1552.72        500.000        3258.47     
  1551.21        500.000        3272.81     
  1549.70        500.000        3260.44     
  1548.19        500.000        3258.80     
  1546.68        500.000        3265.94     
  1545.17        500.000        3259.68     
  1543.66        500.000        3259.70     
  1542.15        500.000        3261.88     
  1540.64        500.000        3261.55     
  1539.13        500.000        3264.31     
  1537.62        500.000        3262.35     
  1536.11        500.000        3266.97     
  1534.60        500.000        3263.19     
  1533.09        500.000        3265.19     
  1531.58        500.000        3292.70     
  1530.07        500.000        3265.83     
  1528.56        500.000        3266.63     
  1527.05        500.000        3269.86     
  1525.54        500.000        3267.13     
  1524.03        500.000        3268.08     
  1522.52        500.000        3268.71     
  1521.01        500.000        3268.55     
  1519.50        500.000        3269.79     
  1517.99        500.000        3270.86     
  1516.48        500.000        3271.18     
  1514.97        500.000        3272.59     
  1513.46        500.000        3272.69     
  1511.95        500.000        3273.22     
  1510.44        500.000        3273.24     
  1508.93        500.000        3274.15     
  1507.42        500.000        3275.06     
  1505.91        500.000        3275.70     
  1504.40        500.000        3276.26     
  1502.89        500.000        3277.50     
  1501.38        500.000        3277.89     
  1499.87        500.000        3278.93     
  1498.36        500.000        3277.89     
  1496.85        500.000        3279.24     
  1495.34        500.000        3279.65     
  1493.83        500.000        3280.87     
  1492.32        500.000        3281.37     
  1490.81        500.000        3279.49     
  1489.30        500.000        3271.32     
  1487.79        500.000        3273.14     
  1486.28        500.000        3273.35     
  1484.77        500.000        3274.03     
  1483.26        500.000        3275.39     
  1481.75        500.000        3276.31     
  1480.24        500.000        3276.71     
  1478.73        500.000        3277.14     
  1477.22        500.000        3279.02     
  1475.71        500.000        3279.26     
  1474.20        500.000        3280.93     
  1472.68        500.000        3281.50     
  1471.17        500.000        3282.74     
  1469.66        500.000        3283.23     
  1468.15        500.000        3284.36     
  1466.64        500.000        3284.88     
  1465.13        500.000        3286.91     
  1463.62        500.000        3286.87     
  1462.11        500.000        3278.80     
  1460.60        500.000        3268.40     
  1459.09        500.000        3269.87     
  1457.58        500.000        3270.57     
  1456.07        500.000        3271.83     
  1454.56        500.000        3272.95     
  1453.05        500.000        3274.62     
  1451.54        500.000        3275.84     
  1450.03        500.000        3277.16     
  1448.52        500.000        3279.05     
  1447.01        500.000        3279.63     
  1445.50        500.000        3281.00     
  1443.99        500.000        3282.37     
  1442.48        500.000        3283.71     
  1440.97        500.000        3285.05     
  1439.46        500.000        3286.70     
  1437.95        500.000        3288.13     
  1436.44        500.000        3289.32     
  1434.93        500.000        3136.75     
  1433.42        500.000        3108.39     
  1431.91        500.000        3110.19     
  1430.40        500.000        3112.12     
  1428.89        500.000        3114.01     
  1427.38        500.000        3115.80     
  1425.87        500.000        3117.57     
  1424.36        500.000        3119.42     
  1422.85        500.000        3121.38     
  1421.34        500.000        3123.20     
  1419.83        500.000        3125.06     
  1418.32        500.000        3126.76     
  1416.81        500.000        3128.51     
  1415.30        500.000        3130.45     
  1413.79        500.000        3132.20     
  1412.28        500.000        3134.15     
  1410.77        500.000        3135.58     
  1409.26        500.000        3137.85     
  1407.75        500.000        3139.82     
  1406.24        500.000        3141.57     
  1404.73        500.000        3143.49     
  1403.22        500.000        3145.08     
  1401.71        500.000        3147.09     
  1400.20        500.000        3148.83     
  1398.69        500.000        3150.72     
  1397.18        500.000        3152.96     
  1395.67        500.000        3154.87     
  1394.16        500.000        3155.78     
  1392.65        500.000        3158.56     
  1391.14        500.000        3160.14     
  1389.63        500.000        3162.01     
  1388.12        500.000        3163.78     
  1386.60        500.000        3165.75     
  1385.09        500.000        3167.46     
  1383.58        500.000        3169.66     
  1382.07        500.000        3171.26     
  1380.56        500.000        3173.14     
  1379.05        500.000        3175.06     
  1377.54        500.000        3180.15     
  1376.03        500.000        3194.85     
  1374.52        500.000        3207.40     
  1373.01        500.000        3210.06     
  1371.50        500.000        3212.42     
  1369.99        500.000        3215.18     
  1368.48        500.000        3217.74     
  1366.97        500.000        3220.27     
  1365.46        500.000        3222.89     
  1363.95        500.000        3225.43     
  1362.44        500.000        3228.14     
  1360.93        500.000        3230.61     
  1359.42        500.000        3233.15     
  1357.91        500.000        3235.00     
  1356.40        500.000        3233.29     
  1354.89        500.000        3239.15     
  1353.38        500.000        3240.46     
  1351.87        500.000        3243.49     
  1350.36        500.000        3245.49     
  1348.85        500.000        3247.64     
  1347.34        500.000        3249.84     
  1345.83        500.000        3251.95     
  1344.32        500.000        3253.86     
  1342.81        500.000        3254.35     
  1341.30        500.000        3258.22     
  1339.79        500.000        3260.37     
  1338.28        500.000        3262.41     
  1336.77        500.000        3264.50     
  1335.26        500.000        3266.50     
  1333.75        500.000        3268.30     
  1332.24        500.000        3270.41     
  1330.73        500.000        3272.50     
  1329.22        500.000        3274.49     
  1327.71        500.000        3275.41     
  1326.20        500.000        3277.76     
  1324.69        500.000        3280.33     
  1323.18        500.000        3282.18     
  1321.67        500.000        3284.21     
  1320.16        500.000        3285.62     
  1318.65        500.000        3287.55     
  1317.14        500.000        3289.06     
  1315.63        500.000        3290.69     
  1314.12        500.000        3292.57     
  1312.61        500.000        3294.08     
  1311.10        500.000        3296.17     
  1309.59        500.000        3297.82     
  1308.08        500.000        3290.14     
  1306.57        500.000        3313.97     
  1305.06        500.000        3301.43     
  1303.55        500.000        3306.01     
  1302.04        500.000        3305.85     
  1300.52        500.000        3279.16     
  1299.01        500.000        3361.59     
  1297.50        500.000        3304.61     
  1295.99        500.000        3318.25     
  1294.48        500.000        3312.91     
  1292.97        500.000        3313.75     
  1291.46        500.000        3314.99     
  1289.95        500.000        3316.88     
  1288.44        500.000        3317.01     
  1286.93        500.000        3319.27     
  1285.42        500.000        3320.96     
  1283.91        500.000        3321.17     
  1282.40        500.000        3323.65     
  1280.89        500.000        3323.98     
  1279.38        500.000        3325.34     
  1277.87        500.000        3325.18     
  1276.36        500.000        3310.73     
  1274.85        500.000        3346.91     
  1273.34        500.000        3327.97     
  1271.83        500.000        3328.72     
  1270.32        500.000        3329.05     
  1268.81        500.000        2896.33     
  1267.30        500.000        2826.67     
  1265.79        500.000        2828.49     
  1264.28        500.000        2828.87     
  1262.77        500.000        2832.44     
  1261.26        500.000        2835.19     
  1259.75        500.000        2837.67     
  1258.24        500.000        2840.12     
  1256.73        500.000        2842.60     
  1255.22        500.000        2854.43     
  1253.71        500.000        2855.48     
  1252.20        500.000        2856.64     
  1250.69        500.000        2857.92     
  1249.18        500.000        2858.25     
  1247.67        500.000        2860.33     
  1246.16        500.000        2860.69     
  1244.65        500.000        2862.60     
  1243.14        500.000        2862.72     
  1241.63        500.000        2863.85     
  1240.12        500.000        2862.87     
  1238.61        500.000        2865.47     
  1237.10        500.000        2866.48     
  1235.59        500.000        2865.96     
  1234.08        500.000        2867.13     
  1232.57        500.000        2867.84     
  1231.06        500.000        2865.97     
  1229.55        500.000        2868.67     
  1228.04        500.000        2868.75     
  1226.53        500.000        2868.51     
  1225.02        500.000        2869.59     
  1223.51        500.000        2869.25     
  1222.00        500.000        2869.03     
  1220.49        500.000        2868.61     
  1218.98        500.000        2868.73     
  1217.47        500.000        2690.40     
  1215.96        500.000        2921.64     
  1214.44        500.000        2975.86     
  1212.93        500.000        2702.18     
  1211.42        500.000        3769.59     
  1209.91        500.000        2850.20     
  1208.40        500.000        2680.64     
  1206.89        500.000        2684.05     
  1205.38        500.000        2674.48     
  1203.87        500.000        2705.52     
  1202.36        500.000        2661.82     
  1200.85        500.000        2688.06     
  1199.34        500.000        2680.21     
  1197.83        500.000        2679.68     
  1196.32        500.000        2672.24     
  1194.81        500.000        2669.74     
  1193.30        500.000        2665.11     
  1191.79        500.000        2657.06     
  1190.28        500.000        2644.36     
  1188.77        500.000        2629.28     
  1187.26        500.000        2629.30     
  1185.75        500.000        2629.38     
  1184.24        500.000        2629.42     
  1182.73        500.000        2629.49     
  1181.22        500.000        2629.57     
  1179.71        500.000        2629.62     
  1178.20        500.000        2629.74     
  1176.69        500.000        2629.82     
  1175.18        500.000        2629.90     
  1173.67        500.000        2629.94     
  1172.16        500.000        2630.04     
  1170.65        500.000        2630.12     
  1169.14        500.000        2630.18     
  1167.63        500.000        2630.24     
  1166.12        500.000        2630.31     
  1164.61        500.000        2630.37     
  1163.10        500.000        2630.44     
  1161.59        500.000        2630.50     
  1160.08        500.000        2630.57     
  1158.57        500.000        2630.67     
  1157.06        500.000        2630.69     
  1155.55        500.000        2630.76     
  1154.04        500.000        2630.84     
  1152.53        500.000        2630.91     
  1151.02        500.000        2631.00     
  1149.51        500.000        2631.06     
  1148.00        500.000        2631.13     
  1146.49        500.000        2631.14     
  1144.98        500.000        2631.21     
  1143.47        500.000        2631.33     
  1141.96        500.000        2631.47     
  1140.45        500.000        2631.46     
  1138.94        500.000        2631.53     
  1137.43        500.000        2631.67     
  1135.92        500.000        2631.74     
  1134.41        500.000        2631.78     
  1132.90        500.000        2631.78     
  1131.39        500.000        2631.86     
  1129.88        500.000        2631.88     
  1128.36        500.000        2631.95     
  1126.85        500.000        2632.11     
  1125.34        500.000        2632.07     
  1123.83        500.000        2632.17     
  1122.32        500.000        2632.22     
  1120.81        500.000        2632.27     
  1119.30        500.000        2632.34     
  1117.79        500.000        2632.40     
  1116.28        500.000        2632.47     
  1114.77        500.000        2632.53     
  1113.26        500.000        2632.08     
  1111.75        500.000        2632.66     
  1110.24        500.000        2632.72     
  1108.73        500.000        2632.65     
  1107.22        500.000        2632.65     
  1105.71        500.000        2632.87     
  1104.20        500.000        2632.93     
  1102.69        500.000        2632.60     
  1101.18        500.000        2631.05     
  1099.67        500.000        2630.93     
  1098.16        500.000        2630.48     
  1096.65        500.000        2630.86     
  1095.14        500.000        2630.84     
  1093.63        500.000        2630.83     
  1092.12        500.000        2630.98     
  1090.61        500.000        2630.95     
  1089.10        500.000        2630.97     
  1087.59        500.000        2630.99     
  1086.08        500.000        2630.98     
  1084.57        500.000        2631.01     
  1083.06        500.000        2630.70     
  1081.55        500.000        2631.03     
  1080.04        500.000        2631.01     
  1078.53        500.000        2631.07     
  1077.02        500.000        2631.12     
  1075.51        500.000        2631.16     
  1074.00        500.000        2631.19     
  1072.49        500.000        2631.22     
  1070.98        500.000        2631.25     
  1069.47        500.000        2631.28     
  1067.96        500.000        2631.26     
  1066.45        500.000        2631.36     
  1064.94        500.000        2631.38     
  1063.43        500.000        2631.43     
  1061.92        500.000        2631.49     
  1060.41        500.000        2631.49     
  1058.90        500.000        2631.17     
  1057.39        500.000        2631.58     
  1055.88        500.000        2631.63     
  1054.37        500.000        2631.67     
  1052.86        500.000        2631.71     
  1051.35        500.000        2631.75     
  1049.84        500.000        2631.80     
  1048.33        500.000        2631.85     
  1046.82        500.000        2631.88     
  1045.31        500.000        2631.93     
  1043.80        500.000        2631.82     
  1042.28        500.000        2631.88     
  1040.77        500.000        2631.94     
  1039.26        500.000        2632.01     
  1037.75        500.000        2631.80     
  1036.24        500.000        2631.86     
  1034.73        500.000        2631.93     
  1033.22        500.000        2631.99     
  1031.71        500.000        2632.24     
  1030.20        500.000        2632.12     
  1028.69        500.000        2632.45     
  1027.18        500.000        2632.24     
  1025.67        500.000        2632.31     
  1024.16        500.000        2632.59     
  1022.65        500.000        2632.54     
  1021.14        500.000        2632.59     
  1019.63        500.000        2632.65     
  1018.12        500.000        2632.71     
  1016.61        500.000        2632.67     
  1015.10        500.000        2632.73     
  1013.59        500.000        2632.79     
  1012.08        500.000        2632.84     
  1010.57        500.000        2632.90     
  1009.06        500.000        2632.90     
  1007.55        500.000        2632.97     
  1006.04        500.000        2633.03     
  1004.53        500.000        2633.09     
  1003.02        500.000        2633.16     
  1001.51        500.000        2633.22     
  1000.00        500.000        2633.27     
