|6.6.6
Archiving\03_Data\fracLP/QFM/ALH/ALH_4.tab                                
           1
T(K)    
  0.000000000000000E+000
  0.000000000000000E+000
           0
           3
T(K)           P(bar)         Sp(TH),m3     
  2000.00        500.000                 NaN
  1997.49        500.000                 NaN
  1994.99        500.000                 NaN
  1992.48        500.000                 NaN
  1989.97        500.000                 NaN
  1987.47        500.000                 NaN
  1984.96        500.000                 NaN
  1982.46        500.000                 NaN
  1979.95        500.000                 NaN
  1977.44        500.000                 NaN
  1974.94        500.000                 NaN
  1972.43        500.000                 NaN
  1969.92        500.000                 NaN
  1967.42        500.000                 NaN
  1964.91        500.000                 NaN
  1962.41        500.000                 NaN
  1959.90        500.000                 NaN
  1957.39        500.000                 NaN
  1954.89        500.000                 NaN
  1952.38        500.000                 NaN
  1949.87        500.000                 NaN
  1947.37        500.000                 NaN
  1944.86        500.000                 NaN
  1942.36        500.000                 NaN
  1939.85        500.000                 NaN
  1937.34        500.000                 NaN
  1934.84        500.000                 NaN
  1932.33        500.000                 NaN
  1929.82        500.000                 NaN
  1927.32        500.000                 NaN
  1924.81        500.000                 NaN
  1922.31        500.000                 NaN
  1919.80        500.000                 NaN
  1917.29        500.000                 NaN
  1914.79        500.000                 NaN
  1912.28        500.000                 NaN
  1909.77        500.000                 NaN
  1907.27        500.000                 NaN
  1904.76        500.000                 NaN
  1902.26        500.000                 NaN
  1899.75        500.000                 NaN
  1897.24        500.000                 NaN
  1894.74        500.000                 NaN
  1892.23        500.000                 NaN
  1889.72        500.000                 NaN
  1887.22        500.000                 NaN
  1884.71        500.000                 NaN
  1882.21        500.000                 NaN
  1879.70        500.000                 NaN
  1877.19        500.000                 NaN
  1874.69        500.000                 NaN
  1872.18        500.000                 NaN
  1869.67        500.000                 NaN
  1867.17        500.000                 NaN
  1864.66        500.000                 NaN
  1862.16        500.000                 NaN
  1859.65        500.000                 NaN
  1857.14        500.000                 NaN
  1854.64        500.000                 NaN
  1852.13        500.000                 NaN
  1849.62        500.000                 NaN
  1847.12        500.000                 NaN
  1844.61        500.000                 NaN
  1842.11        500.000       0.829581E-004
  1839.60        500.000       0.291802E-003
  1837.09        500.000       0.289487E-003
  1834.59        500.000       0.287336E-003
  1832.08        500.000       0.284525E-003
  1829.57        500.000       0.281930E-003
  1827.07        500.000       0.279591E-003
  1824.56        500.000       0.277375E-003
  1822.06        500.000       0.275237E-003
  1819.55        500.000       0.328553E-003
  1817.04        500.000       0.124570E-003
  1814.54        500.000       0.357575E-003
  1812.03        500.000       0.266707E-003
  1809.52        500.000       0.263879E-003
  1807.02        500.000       0.177910E-003
  1804.51        500.000       0.343234E-003
  1802.01        500.000       0.257871E-003
  1799.50        500.000       0.255608E-003
  1796.99        500.000       0.252321E-003
  1794.49        500.000       0.251585E-003
  1791.98        500.000       0.249525E-003
  1789.47        500.000       0.250293E-003
  1786.97        500.000       0.241766E-003
  1784.46        500.000       0.243315E-003
  1781.95        500.000       0.241986E-003
  1779.45        500.000       0.281135E-003
  1776.94        500.000       0.195665E-003
  1774.44        500.000       0.236012E-003
  1771.93        500.000       0.234341E-003
  1769.42        500.000       0.232415E-003
  1766.92        500.000       0.230314E-003
  1764.41        500.000       0.228288E-003
  1761.90        500.000       0.226707E-003
  1759.40        500.000       0.224998E-003
  1756.89        500.000       0.223156E-003
  1754.39        500.000       0.222362E-003
  1751.88        500.000       0.218748E-003
  1749.37        500.000       0.218834E-003
  1746.87        500.000       0.215821E-003
  1744.36        500.000       0.216343E-003
  1741.85        500.000       0.211393E-003
  1739.35        500.000       0.211124E-003
  1736.84        500.000       0.210134E-003
  1734.34        500.000       0.208323E-003
  1731.83        500.000       0.206344E-003
  1729.32        500.000       0.205138E-003
  1726.82        500.000       0.177598E-003
  1724.31        500.000       0.229107E-003
  1721.80        500.000       0.200257E-003
  1719.30        500.000       0.198289E-003
  1716.79        500.000       0.195852E-003
  1714.29        500.000       0.197016E-003
  1711.78        500.000       0.194087E-003
  1709.27        500.000       0.192266E-003
  1706.77        500.000       0.190961E-003
  1704.26        500.000       0.189096E-003
  1701.75        500.000       0.188522E-003
  1699.25        500.000       0.186742E-003
  1696.74        500.000       0.184047E-003
  1694.24        500.000       0.183401E-003
  1691.73        500.000       0.182070E-003
  1689.22        500.000       0.180285E-003
  1686.72        500.000       0.179132E-003
  1684.21        500.000       0.177714E-003
  1681.70        500.000       0.175746E-003
  1679.20        500.000       0.174976E-003
  1676.69        500.000       0.172634E-003
  1674.19        500.000       0.171466E-003
  1671.68        500.000       0.170361E-003
  1669.17        500.000       0.168881E-003
  1666.67        500.000       0.166955E-003
  1664.16        500.000       0.165941E-003
  1661.65        500.000       0.165476E-003
  1659.15        500.000       0.161640E-003
  1656.64        500.000       0.161501E-003
  1654.14        500.000       0.159839E-003
  1651.63        500.000       0.158727E-003
  1649.12        500.000       0.157086E-003
  1646.62        500.000       0.155569E-003
  1644.11        500.000       0.154227E-003
  1641.60        500.000       0.152815E-003
  1639.10        500.000       0.151818E-003
  1636.59        500.000       0.157146E-003
  1634.09        500.000       0.876864E-004
  1631.58        500.000       0.202220E-003
  1629.07        500.000       0.144494E-003
  1626.57        500.000       0.143463E-003
  1624.06        500.000       0.142515E-003
  1621.55        500.000       0.142021E-003
  1619.05        500.000       0.138910E-003
  1616.54        500.000       0.138475E-003
  1614.04        500.000       0.137456E-003
  1611.53        500.000       0.135041E-003
  1609.02        500.000       0.189284E-003
  1606.52        500.000       0.816738E-004
  1604.01        500.000       0.128608E-003
  1601.50        500.000       0.129696E-003
  1599.00        500.000       0.128822E-003
  1596.49        500.000       0.130334E-003
  1593.98        500.000       0.121796E-003
  1591.48        500.000       0.126905E-003
  1588.97        500.000       0.119120E-003
  1586.47        500.000       0.121299E-003
  1583.96        500.000       0.120013E-003
  1581.45        500.000       0.119373E-003
  1578.95        500.000       0.115858E-003
  1576.44        500.000       0.115709E-003
  1573.93        500.000       0.114455E-003
  1571.43        500.000       0.113026E-003
  1568.92        500.000       0.111991E-003
  1566.42        500.000       0.110096E-003
  1563.91        500.000       0.705820E-004
  1561.40        500.000       0.145666E-003
  1558.90        500.000       0.106139E-003
  1556.39        500.000       0.105046E-003
  1553.88        500.000       0.103873E-003
  1551.38        500.000       0.102493E-003
  1548.87        500.000       0.100965E-003
  1546.37        500.000       0.138364E-003
  1543.86        500.000       0.608972E-004
  1541.35        500.000       0.971663E-004
  1538.85        500.000       0.135043E-003
  1536.34        500.000       0.558568E-004
  1533.83        500.000       0.944992E-004
  1531.33        500.000       0.918176E-004
  1528.82        500.000       0.910761E-004
  1526.32        500.000       0.899733E-004
  1523.81        500.000       0.884994E-004
  1521.30        500.000                 NaN
  1518.80        500.000                 NaN
  1516.29        500.000                 NaN
  1513.78        500.000                 NaN
  1511.28        500.000                 NaN
  1508.77        500.000                 NaN
  1506.27        500.000                 NaN
  1503.76        500.000                 NaN
  1501.25        500.000                 NaN
  1498.75        500.000                 NaN
  1496.24        500.000                 NaN
  1493.73        500.000                 NaN
  1491.23        500.000                 NaN
  1488.72        500.000                 NaN
  1486.22        500.000                 NaN
  1483.71        500.000                 NaN
  1481.20        500.000                 NaN
  1478.70        500.000                 NaN
  1476.19        500.000                 NaN
  1473.68        500.000                 NaN
  1471.18        500.000                 NaN
  1468.67        500.000                 NaN
  1466.17        500.000                 NaN
  1463.66        500.000                 NaN
  1461.15        500.000                 NaN
  1458.65        500.000                 NaN
  1456.14        500.000                 NaN
  1453.63        500.000                 NaN
  1451.13        500.000                 NaN
  1448.62        500.000                 NaN
  1446.12        500.000                 NaN
  1443.61        500.000                 NaN
  1441.10        500.000                 NaN
  1438.60        500.000                 NaN
  1436.09        500.000                 NaN
  1433.58        500.000                 NaN
  1431.08        500.000                 NaN
  1428.57        500.000                 NaN
  1426.07        500.000                 NaN
  1423.56        500.000                 NaN
  1421.05        500.000                 NaN
  1418.55        500.000                 NaN
  1416.04        500.000                 NaN
  1413.53        500.000                 NaN
  1411.03        500.000                 NaN
  1408.52        500.000                 NaN
  1406.02        500.000                 NaN
  1403.51        500.000                 NaN
  1401.00        500.000                 NaN
  1398.50        500.000                 NaN
  1395.99        500.000                 NaN
  1393.48        500.000                 NaN
  1390.98        500.000                 NaN
  1388.47        500.000                 NaN
  1385.96        500.000                 NaN
  1383.46        500.000                 NaN
  1380.95        500.000                 NaN
  1378.45        500.000                 NaN
  1375.94        500.000                 NaN
  1373.43        500.000                 NaN
  1370.93        500.000                 NaN
  1368.42        500.000                 NaN
  1365.91        500.000                 NaN
  1363.41        500.000                 NaN
  1360.90        500.000       0.624420E-004
  1358.40        500.000       0.297465E-003
  1355.89        500.000       0.565013E-003
  1353.38        500.000       0.105943E-002
  1350.88        500.000       0.165590E-002
  1348.37        500.000       0.193369E-002
  1345.86        500.000       0.199969E-002
  1343.36        500.000       0.194674E-002
  1340.85        500.000       0.186190E-002
  1338.35        500.000       0.176234E-002
  1335.84        500.000       0.166392E-002
  1333.33        500.000       0.156836E-002
  1330.83        500.000       0.147717E-002
  1328.32        500.000       0.139389E-002
  1325.81        500.000       0.131529E-002
  1323.31        500.000       0.124286E-002
  1320.80        500.000       0.117420E-002
  1318.30        500.000       0.111129E-002
  1315.79        500.000       0.105223E-002
  1313.28        500.000       0.996692E-003
  1310.78        500.000       0.945944E-003
  1308.27        500.000       0.898133E-003
  1305.76        500.000       0.852394E-003
  1303.26        500.000       0.810798E-003
  1300.75        500.000       0.770713E-003
  1298.25        500.000       0.733971E-003
  1295.74        500.000       0.697983E-003
  1293.23        500.000       0.665186E-003
  1290.73        500.000       0.633912E-003
  1288.22        500.000       0.603559E-003
  1285.71        500.000       0.575698E-003
  1283.21        500.000       0.548816E-003
  1280.70        500.000       0.523440E-003
  1278.20        500.000       0.499482E-003
  1275.69        500.000       0.476359E-003
  1273.18        500.000       0.454559E-003
  1270.68        500.000       0.434490E-003
  1268.17        500.000       0.414147E-003
  1265.66        500.000       0.395624E-003
  1263.16        500.000       0.377177E-003
  1260.65        500.000       0.359965E-003
  1258.15        500.000       0.343879E-003
  1255.64        500.000       0.561979E-003
  1253.13        500.000       0.688360E-003
  1250.63        500.000       0.606966E-003
  1248.12        500.000       0.540918E-003
  1245.61        500.000       0.486423E-003
  1243.11        500.000       0.439887E-003
  1240.60        500.000       0.399834E-003
  1238.10        500.000       0.365321E-003
  1235.59        500.000       0.334174E-003
  1233.08        500.000       0.306692E-003
  1230.58        500.000       0.281728E-003
  1228.07        500.000       0.333239E-003
  1225.56        500.000       0.662292E-004
  1223.06        500.000       0.254077E-003
  1220.55        500.000       0.200423E-003
  1218.05        500.000       0.207837E-003
  1215.54        500.000       0.170226E-003
  1213.03        500.000       0.713441E-003
  1210.53        500.000       0.917400E-003
  1208.02        500.000       0.557475E-003
  1205.51        500.000       0.346890E-009
  1203.01        500.000                 NaN
  1200.50        500.000                 NaN
  1197.99        500.000       0.168649E-003
  1195.49        500.000       0.666763E-004
  1192.98        500.000       0.461143E-004
  1190.48        500.000       0.445782E-004
  1187.97        500.000       0.661165E-004
  1185.46        500.000       0.149897E-003
  1182.96        500.000       0.150032E-003
  1180.45        500.000       0.147647E-003
  1177.94        500.000       0.147655E-003
  1175.44        500.000       0.147596E-003
  1172.93        500.000       0.147666E-003
  1170.43        500.000       0.147747E-003
  1167.92        500.000       0.153317E-003
  1165.41        500.000       0.146601E-003
  1162.91        500.000       0.145940E-003
  1160.40        500.000       0.145714E-003
  1157.89        500.000       0.143543E-003
  1155.39        500.000       0.144019E-003
  1152.88        500.000       0.143489E-003
  1150.38        500.000       0.142555E-003
  1147.87        500.000       0.145300E-003
  1145.36        500.000       0.141963E-003
  1142.86        500.000       0.141380E-003
  1140.35        500.000       0.140588E-003
  1137.84        500.000       0.140131E-003
  1135.34        500.000       0.139852E-003
  1132.83        500.000       0.139359E-003
  1130.33        500.000       0.138877E-003
  1127.82        500.000       0.138401E-003
  1125.31        500.000       0.137996E-003
  1122.81        500.000       0.137632E-003
  1120.30        500.000       0.139372E-003
  1117.79        500.000       0.136719E-003
  1115.29        500.000       0.135914E-003
  1112.78        500.000       0.135820E-003
  1110.28        500.000       0.135393E-003
  1107.77        500.000       0.134829E-003
  1105.26        500.000       0.134412E-003
  1102.76        500.000       0.135813E-003
  1100.25        500.000       0.134861E-003
  1097.74        500.000       0.134844E-003
  1095.24        500.000       0.134828E-003
  1092.73        500.000       0.134812E-003
  1090.23        500.000       0.134795E-003
  1087.72        500.000       0.134779E-003
  1085.21        500.000       0.134763E-003
  1082.71        500.000       0.134747E-003
  1080.20        500.000       0.134730E-003
  1077.69        500.000       0.131481E-003
  1075.19        500.000       0.129878E-003
  1072.68        500.000       0.129862E-003
  1070.18        500.000       0.129846E-003
  1067.67        500.000       0.129831E-003
  1065.16        500.000       0.129815E-003
  1062.66        500.000       0.128231E-003
  1060.15        500.000       0.128216E-003
  1057.64        500.000       0.128200E-003
  1055.14        500.000       0.128185E-003
  1052.63        500.000       0.128170E-003
  1050.13        500.000       0.128154E-003
  1047.62        500.000       0.128139E-003
  1045.11        500.000       0.128124E-003
  1042.61        500.000       0.128108E-003
  1040.10        500.000       0.128093E-003
  1037.59        500.000       0.128078E-003
  1035.09        500.000       0.125742E-003
  1032.58        500.000       0.125727E-003
  1030.08        500.000       0.124429E-003
  1027.57        500.000       0.124880E-003
  1025.06        500.000       0.124577E-003
  1022.56        500.000       0.124318E-003
  1020.05        500.000       0.124066E-003
  1017.54        500.000       0.123793E-003
  1015.04        500.000       0.123602E-003
  1012.53        500.000       0.123411E-003
  1010.03        500.000       0.123263E-003
  1007.52        500.000       0.122552E-003
  1005.01        500.000       0.121806E-003
  1002.51        500.000       0.120977E-003
  1000.00        500.000       0.120255E-003
