|6.6.6
Archiving\03_Data\frac/QFM_m4.25/EETA/EETA_6.tab                          
           1
T(K)    
  0.000000000000000E+000
  0.000000000000000E+000
           0
           3
T(K)           P(bar)         rho,kg/m3     
  2000.00        2500.00        3627.41     
  1997.49        2500.00        3627.79     
  1994.99        2500.00        3628.17     
  1992.48        2500.00        3628.54     
  1989.97        2500.00        3628.92     
  1987.47        2500.00        3629.30     
  1984.96        2500.00        3629.68     
  1982.46        2500.00        3630.05     
  1979.95        2500.00        3630.43     
  1977.44        2500.00        3630.81     
  1974.94        2500.00        3631.18     
  1972.43        2500.00        3631.56     
  1969.92        2500.00        3631.93     
  1967.42        2500.00        3632.31     
  1964.91        2500.00        3632.69     
  1962.41        2500.00        3633.06     
  1959.90        2500.00        3633.44     
  1957.39        2500.00        3633.81     
  1954.89        2500.00        3634.19     
  1952.38        2500.00        3634.56     
  1949.87        2500.00        3634.94     
  1947.37        2500.00        3635.31     
  1944.86        2500.00        3635.69     
  1942.36        2500.00        3636.06     
  1939.85        2500.00        3636.44     
  1937.34        2500.00        3636.81     
  1934.84        2500.00        3637.18     
  1932.33        2500.00        3637.56     
  1929.82        2500.00        3637.93     
  1927.32        2500.00        3638.31     
  1924.81        2500.00        3638.68     
  1922.31        2500.00        3639.05     
  1919.80        2500.00        3639.43     
  1917.29        2500.00        3639.80     
  1914.79        2500.00        3640.17     
  1912.28        2500.00        3640.55     
  1909.77        2500.00        3640.92     
  1907.27        2500.00        3641.29     
  1904.76        2500.00        3641.66     
  1902.26        2500.00        3642.04     
  1899.75        2500.00        3642.41     
  1897.24        2500.00        3642.78     
  1894.74        2500.00        3643.15     
  1892.23        2500.00        3643.53     
  1889.72        2500.00        3643.90     
  1887.22        2500.00        3644.27     
  1884.71        2500.00        3644.64     
  1882.21        2500.00        3645.01     
  1879.70        2500.00        3645.38     
  1877.19        2500.00        3645.75     
  1874.69        2500.00        3646.13     
  1872.18        2500.00        3646.50     
  1869.67        2500.00        3646.87     
  1867.17        2500.00        3647.24     
  1864.66        2500.00        3647.61     
  1862.16        2500.00        3647.98     
  1859.65        2500.00        3648.35     
  1857.14        2500.00        3648.72     
  1854.64        2500.00        3649.09     
  1852.13        2500.00        3649.46     
  1849.62        2500.00        3649.83     
  1847.12        2500.00        3650.20     
  1844.61        2500.00        3650.57     
  1842.11        2500.00        3650.94     
  1839.60        2500.00        3651.31     
  1837.09        2500.00        3651.68     
  1834.59        2500.00        3652.05     
  1832.08        2500.00        3652.42     
  1829.57        2500.00        3652.78     
  1827.07        2500.00        3653.15     
  1824.56        2500.00        3653.52     
  1822.06        2500.00        3653.89     
  1819.55        2500.00        3654.26     
  1817.04        2500.00        3654.63     
  1814.54        2500.00        3654.99     
  1812.03        2500.00        3655.36     
  1809.52        2500.00        3655.73     
  1807.02        2500.00        3656.10     
  1804.51        2500.00        3656.47     
  1802.01        2500.00        3656.83     
  1799.50        2500.00        3657.20     
  1796.99        2500.00        3657.57     
  1794.49        2500.00        3657.93     
  1791.98        2500.00        3658.30     
  1789.47        2500.00        3658.67     
  1786.97        2500.00        3659.04     
  1784.46        2500.00        3659.40     
  1781.95        2500.00        3659.77     
  1779.45        2500.00        3660.13     
  1776.94        2500.00        3660.50     
  1774.44        2500.00        3660.87     
  1771.93        2500.00        3661.23     
  1769.42        2500.00        3661.60     
  1766.92        2500.00        3661.96     
  1764.41        2500.00        3662.33     
  1761.90        2500.00        3662.70     
  1759.40        2500.00        3663.06     
  1756.89        2500.00        3663.43     
  1754.39        2500.00        3663.79     
  1751.88        2500.00        3664.16     
  1749.37        2500.00        3664.52     
  1746.87        2500.00        3664.89     
  1744.36        2500.00        3665.25     
  1741.85        2500.00        3665.62     
  1739.35        2500.00        3665.98     
  1736.84        2500.00        3666.34     
  1734.34        2500.00        3666.71     
  1731.83        2500.00        3667.07     
  1729.32        2500.00        3667.44     
  1726.82        2500.00        3667.80     
  1724.31        2500.00        3668.16     
  1721.80        2500.00        3668.53     
  1719.30        2500.00        3668.89     
  1716.79        2500.00        3669.25     
  1714.29        2500.00        3669.62     
  1711.78        2500.00        3669.98     
  1709.27        2500.00        3670.34     
  1706.77        2500.00        3670.71     
  1704.26        2500.00        3671.07     
  1701.75        2500.00        3671.43     
  1699.25        2500.00        3671.79     
  1696.74        2500.00        3672.16     
  1694.24        2500.00        3672.52     
  1691.73        2500.00        3672.88     
  1689.22        2500.00        3673.24     
  1686.72        2500.00        3673.60     
  1684.21        2500.00        3673.97     
  1681.70        2500.00        3674.33     
  1679.20        2500.00        3674.69     
  1676.69        2500.00        3675.05     
  1674.19        2500.00        3675.41     
  1671.68        2500.00        3675.77     
  1669.17        2500.00        3676.13     
  1666.67        2500.00        3676.49     
  1664.16        2500.00        3676.85     
  1661.65        2500.00        3677.22     
  1659.15        2500.00        3678.08     
  1656.64        2500.00        3678.95     
  1654.14        2500.00        3683.45     
  1651.63        2500.00        3686.97     
  1649.12        2500.00        3687.25     
  1646.62        2500.00        3687.55     
  1644.11        2500.00        3687.81     
  1641.60        2500.00        3688.12     
  1639.10        2500.00        3688.41     
  1636.59        2500.00        3688.69     
  1634.09        2500.00        3688.99     
  1631.58        2500.00        3689.29     
  1629.07        2500.00        3689.56     
  1626.57        2500.00        3601.51     
  1624.06        2500.00        3471.99     
  1621.55        2500.00        3417.02     
  1619.05        2500.00        3418.54     
  1616.54        2500.00        3422.38     
  1614.04        2500.00        3422.26     
  1611.53        2500.00        3424.34     
  1609.02        2500.00        3426.29     
  1606.52        2500.00        3428.10     
  1604.01        2500.00        3429.87     
  1601.50        2500.00        3431.59     
  1599.00        2500.00        3433.82     
  1596.49        2500.00        3435.28     
  1593.98        2500.00        3437.49     
  1591.48        2500.00        3426.43     
  1588.97        2500.00        3297.13     
  1586.47        2500.00        3298.66     
  1583.96        2500.00        3298.94     
  1581.45        2500.00        3299.30     
  1578.95        2500.00        2907.59     
  1576.44        2500.00        2908.06     
  1573.93        2500.00        3303.67     
  1571.43        2500.00        3305.66     
  1568.92        2500.00        3305.24     
  1566.42        2500.00        3307.89     
  1563.91        2500.00        3309.07     
  1561.40        2500.00        3311.08     
  1558.90        2500.00        3311.79     
  1556.39        2500.00        3313.18     
  1553.88        2500.00        3313.87     
  1551.38        2500.00        3315.37     
  1548.87        2500.00        3316.31     
  1546.37        2500.00        3317.36     
  1543.86        2500.00        3318.28     
  1541.35        2500.00        3319.91     
  1538.85        2500.00        3321.28     
  1536.34        2500.00        3312.54     
  1533.83        2500.00        3294.70     
  1531.33        2500.00        3293.61     
  1528.82        2500.00        3295.70     
  1526.32        2500.00        3296.79     
  1523.81        2500.00        3298.75     
  1521.30        2500.00        3300.11     
  1518.80        2500.00        3302.03     
  1516.29        2500.00        3303.60     
  1513.78        2500.00        3304.72     
  1511.28        2500.00        3306.76     
  1508.77        2500.00        3307.81     
  1506.27        2500.00        3310.98     
  1503.76        2500.00        3318.34     
  1501.25        2500.00        3319.43     
  1498.75        2500.00        3320.72     
  1496.24        2500.00        3319.43     
  1493.73        2500.00        3298.76     
  1491.23        2500.00        3299.41     
  1488.72        2500.00        3301.72     
  1486.22        2500.00        3303.81     
  1483.71        2500.00        3305.78     
  1481.20        2500.00        3308.35     
  1478.70        2500.00        3310.59     
  1476.19        2500.00        3312.95     
  1473.68        2500.00        3314.91     
  1471.18        2500.00        3317.43     
  1468.67        2500.00        3319.71     
  1466.17        2500.00        3321.92     
  1463.66        2500.00        3324.30     
  1461.15        2500.00        3326.64     
  1458.65        2500.00        3329.11     
  1456.14        2500.00        3331.21     
  1453.63        2500.00        3333.99     
  1451.13        2500.00        3336.35     
  1448.62        2500.00        3338.68     
  1446.12        2500.00        3341.54     
  1443.61        2500.00        3343.80     
  1441.10        2500.00        3345.98     
  1438.60        2500.00        3355.54     
  1436.09        2500.00        3360.05     
  1433.58        2500.00        3362.13     
  1431.08        2500.00        3364.49     
  1428.57        2500.00        3366.74     
  1426.07        2500.00        3369.28     
  1423.56        2500.00        3209.30     
  1421.05        2500.00        3185.25     
  1418.55        2500.00        3189.19     
  1416.04        2500.00        3193.76     
  1413.53        2500.00        3197.88     
  1411.03        2500.00        3201.90     
  1408.52        2500.00        3206.20     
  1406.02        2500.00        3210.10     
  1403.51        2500.00        3214.40     
  1401.00        2500.00        3218.90     
  1398.50        2500.00        3220.83     
  1395.99        2500.00        3227.39     
  1393.48        2500.00        3229.95     
  1390.98        2500.00        3233.95     
  1388.47        2500.00        3237.92     
  1385.96        2500.00        3241.51     
  1383.46        2500.00        3229.32     
  1380.95        2500.00        3251.50     
  1378.45        2500.00        3253.52     
  1375.94        2500.00        3257.44     
  1373.43        2500.00        3260.44     
  1370.93        2500.00        3264.50     
  1368.42        2500.00        3268.05     
  1365.91        2500.00        3271.22     
  1363.41        2500.00        3274.42     
  1360.90        2500.00        3277.35     
  1358.40        2500.00        3280.75     
  1355.89        2500.00        3284.02     
  1353.38        2500.00        3286.60     
  1350.88        2500.00        3289.79     
  1348.37        2500.00        3292.24     
  1345.86        2500.00        3294.90     
  1343.36        2500.00        3297.48     
  1340.85        2500.00        3321.96     
  1338.35        2500.00        3341.12     
  1335.84        2500.00        3342.90     
  1333.33        2500.00        3344.52     
  1330.83        2500.00        3345.78     
  1328.32        2500.00        3347.03     
  1325.81        2500.00        3348.21     
  1323.31        2500.00        3349.43     
  1320.80        2500.00        3350.58     
  1318.30        2500.00        3351.31     
  1315.79        2500.00        3352.04     
  1313.28        2500.00        3352.94     
  1310.78        2500.00        3354.10     
  1308.27        2500.00        3353.60     
  1305.76        2500.00        3353.93     
  1303.26        2500.00        3354.66     
  1300.75        2500.00        2931.15     
  1298.25        2500.00        2866.53     
  1295.74        2500.00        2873.97     
  1293.23        2500.00        2880.13     
  1290.73        2500.00        2885.25     
  1288.22        2500.00        2888.35     
  1285.71        2500.00        2890.09     
  1283.21        2500.00        2896.62     
  1280.70        2500.00        2900.91     
  1278.20        2500.00        2870.23     
  1275.69        2500.00        2869.54     
  1273.18        2500.00        2896.79     
  1270.68        2500.00        2879.21     
  1268.17        2500.00        2923.54     
  1265.66        2500.00        2869.96     
  1263.16        2500.00        2996.54     
  1260.65        2500.00        2919.03     
  1258.15        2500.00        2874.06     
  1255.64        2500.00        2881.78     
  1253.13        2500.00        2979.08     
  1250.63        2500.00        2871.21     
  1248.12        2500.00        2783.20     
  1245.61        2500.00        3578.31     
  1243.11        2500.00        3370.15     
  1240.60        2500.00        2958.37     
  1238.10        2500.00        2814.98     
  1235.59        2500.00        2887.66     
  1233.08        2500.00        2717.22     
  1230.58        2500.00        2678.92     
  1228.07        2500.00        2679.05     
  1225.56        2500.00        2679.18     
  1223.06        2500.00        2679.31     
  1220.55        2500.00        2679.44     
  1218.05        2500.00        2679.57     
  1215.54        2500.00        2679.72     
  1213.03        2500.00        2679.85     
  1210.53        2500.00        2679.98     
  1208.02        2500.00        2680.11     
  1205.51        2500.00        2680.24     
  1203.01        2500.00        2680.35     
  1200.50        2500.00        2680.48     
  1197.99        2500.00        2680.61     
  1195.49        2500.00        2680.74     
  1192.98        2500.00        2680.87     
  1190.48        2500.00        2681.00     
  1187.97        2500.00        2681.13     
  1185.46        2500.00        2681.26     
  1182.96        2500.00        2681.39     
  1180.45        2500.00        2681.52     
  1177.94        2500.00        2681.65     
  1175.44        2500.00        2681.78     
  1172.93        2500.00        2681.91     
  1170.43        2500.00        2682.04     
  1167.92        2500.00        2682.17     
  1165.41        2500.00        2682.48     
  1162.91        2500.00        2683.08     
  1160.40        2500.00        2682.77     
  1157.89        2500.00        2682.91     
  1155.39        2500.00        2683.03     
  1152.88        2500.00        2682.97     
  1150.38        2500.00        2683.33     
  1147.87        2500.00        2683.42     
  1145.36        2500.00        2683.58     
  1142.86        2500.00        2683.70     
  1140.35        2500.00        2683.83     
  1137.84        2500.00        2683.96     
  1135.34        2500.00        2684.09     
  1132.83        2500.00        2684.22     
  1130.33        2500.00        2684.36     
  1127.82        2500.00        2684.49     
  1125.31        2500.00        2684.62     
  1122.81        2500.00        2684.75     
  1120.30        2500.00        2684.81     
  1117.79        2500.00        2684.90     
  1115.29        2500.00        2685.14     
  1112.78        2500.00        2685.28     
  1110.28        2500.00        2685.41     
  1107.77        2500.00        2685.55     
  1105.26        2500.00        2685.67     
  1102.76        2500.00        2685.82     
  1100.25        2500.00        2685.93     
  1097.74        2500.00        2686.06     
  1095.24        2500.00        2686.19     
  1092.73        2500.00        2686.35     
  1090.23        2500.00        2686.46     
  1087.72        2500.00        2686.58     
  1085.21        2500.00        2686.73     
  1082.71        2500.00        2686.84     
  1080.20        2500.00        2686.98     
  1077.69        2500.00        2687.10     
  1075.19        2500.00        2686.79     
  1072.68        2500.00        2687.35     
  1070.18        2500.00        2687.52     
  1067.67        2500.00        2687.64     
  1065.16        2500.00        2687.79     
  1062.66        2500.00        2687.63     
  1060.15        2500.00        2687.90     
  1057.64        2500.00        2688.02     
  1055.14        2500.00        2688.14     
  1052.63        2500.00        2688.43     
  1050.13        2500.00        2688.28     
  1047.62        2500.00        2688.41     
  1045.11        2500.00        2688.49     
  1042.61        2500.00        2688.95     
  1040.10        2500.00        2689.06     
  1037.59        2500.00        2688.83     
  1035.09        2500.00        2688.98     
  1032.58        2500.00        2689.09     
  1030.08        2500.00        2689.55     
  1027.57        2500.00        2689.78     
  1025.06        2500.00        2689.50     
  1022.56        2500.00        2688.95     
  1020.05        2500.00        2689.08     
  1017.54        2500.00        2689.86     
  1015.04        2500.00        2689.99     
  1012.53        2500.00        2690.17     
  1010.03        2500.00        2690.26     
  1007.52        2500.00        2689.59     
  1005.01        2500.00        2690.52     
  1002.51        2500.00        2690.93     
  1000.00        2500.00        2691.06     
