|6.6.6
Archiving\03_Data\eqLP/QFM_m2.75/LAR/LAR_2.tab                            
           1
T(K)    
  0.000000000000000E+000
  0.000000000000000E+000
           0
           3
T(K)           P(bar)         Sp(TH),kg     
  2000.00        500.000                 NaN
  1996.79        500.000                 NaN
  1993.59        500.000                 NaN
  1990.38        500.000                 NaN
  1987.18        500.000                 NaN
  1983.97        500.000                 NaN
  1980.77        500.000                 NaN
  1977.56        500.000                 NaN
  1974.36        500.000                 NaN
  1971.15        500.000                 NaN
  1967.95        500.000                 NaN
  1964.74        500.000                 NaN
  1961.54        500.000                 NaN
  1958.33        500.000                 NaN
  1955.13        500.000                 NaN
  1951.92        500.000                 NaN
  1948.72        500.000                 NaN
  1945.51        500.000                 NaN
  1942.31        500.000                 NaN
  1939.10        500.000                 NaN
  1935.90        500.000                 NaN
  1932.69        500.000                 NaN
  1929.49        500.000                 NaN
  1926.28        500.000                 NaN
  1923.08        500.000                 NaN
  1919.87        500.000                 NaN
  1916.67        500.000                 NaN
  1913.46        500.000                 NaN
  1910.26        500.000                 NaN
  1907.05        500.000                 NaN
  1903.85        500.000                 NaN
  1900.64        500.000                 NaN
  1897.44        500.000                 NaN
  1894.23        500.000                 NaN
  1891.03        500.000                 NaN
  1887.82        500.000                 NaN
  1884.62        500.000                 NaN
  1881.41        500.000                 NaN
  1878.21        500.000                 NaN
  1875.00        500.000                 NaN
  1871.79        500.000                 NaN
  1868.59        500.000                 NaN
  1865.38        500.000                 NaN
  1862.18        500.000                 NaN
  1858.97        500.000                 NaN
  1855.77        500.000                 NaN
  1852.56        500.000                 NaN
  1849.36        500.000                 NaN
  1846.15        500.000                 NaN
  1842.95        500.000                 NaN
  1839.74        500.000                 NaN
  1836.54        500.000                 NaN
  1833.33        500.000                 NaN
  1830.13        500.000                 NaN
  1826.92        500.000                 NaN
  1823.72        500.000                 NaN
  1820.51        500.000                 NaN
  1817.31        500.000                 NaN
  1814.10        500.000                 NaN
  1810.90        500.000                 NaN
  1807.69        500.000                 NaN
  1804.49        500.000                 NaN
  1801.28        500.000                 NaN
  1798.08        500.000                 NaN
  1794.87        500.000                 NaN
  1791.67        500.000                 NaN
  1788.46        500.000                 NaN
  1785.26        500.000                 NaN
  1782.05        500.000                 NaN
  1778.85        500.000                 NaN
  1775.64        500.000                 NaN
  1772.44        500.000                 NaN
  1769.23        500.000                 NaN
  1766.03        500.000                 NaN
  1762.82        500.000                 NaN
  1759.62        500.000                 NaN
  1756.41        500.000                 NaN
  1753.21        500.000                 NaN
  1750.00        500.000                 NaN
  1746.79        500.000                 NaN
  1743.59        500.000                 NaN
  1740.38        500.000                 NaN
  1737.18        500.000                 NaN
  1733.97        500.000                 NaN
  1730.77        500.000                 NaN
  1727.56        500.000                 NaN
  1724.36        500.000                 NaN
  1721.15        500.000                 NaN
  1717.95        500.000                 NaN
  1714.74        500.000                 NaN
  1711.54        500.000                 NaN
  1708.33        500.000                 NaN
  1705.13        500.000                 NaN
  1701.92        500.000                 NaN
  1698.72        500.000                 NaN
  1695.51        500.000                 NaN
  1692.31        500.000                 NaN
  1689.10        500.000                 NaN
  1685.90        500.000                 NaN
  1682.69        500.000                 NaN
  1679.49        500.000                 NaN
  1676.28        500.000                 NaN
  1673.08        500.000                 NaN
  1669.87        500.000                 NaN
  1666.67        500.000                 NaN
  1663.46        500.000       0.192566E-005
  1660.26        500.000       0.175904E-004
  1657.05        500.000       0.330387E-004
  1653.85        500.000       0.484871E-004
  1650.64        500.000       0.635187E-004
  1647.44        500.000       0.785504E-004
  1644.23        500.000       0.935820E-004
  1641.03        500.000       0.108614E-003
  1637.82        500.000       0.123099E-003
  1634.62        500.000       0.137584E-003
  1631.41        500.000       0.152070E-003
  1628.21        500.000       0.166555E-003
  1625.00        500.000       0.181769E-003
  1621.79        500.000       0.197161E-003
  1618.59        500.000       0.212242E-003
  1615.38        500.000       0.227324E-003
  1612.18        500.000       0.241492E-003
  1608.97        500.000       0.255661E-003
  1605.77        500.000       0.269829E-003
  1602.56        500.000       0.283997E-003
  1599.36        500.000       0.298166E-003
  1596.15        500.000       0.312334E-003
  1592.95        500.000       0.326503E-003
  1589.74        500.000       0.340671E-003
  1586.54        500.000       0.353567E-003
  1583.33        500.000       0.366462E-003
  1580.13        500.000       0.379357E-003
  1576.92        500.000       0.392253E-003
  1573.72        500.000       0.405148E-003
  1570.51        500.000       0.418043E-003
  1567.31        500.000       0.430938E-003
  1564.10        500.000       0.443834E-003
  1560.90        500.000       0.455493E-003
  1557.69        500.000       0.467152E-003
  1554.49        500.000       0.478811E-003
  1551.28        500.000       0.490470E-003
  1548.08        500.000       0.502129E-003
  1544.87        500.000       0.513788E-003
  1541.67        500.000       0.525447E-003
  1538.46        500.000       0.537106E-003
  1535.26        500.000       0.547609E-003
  1532.05        500.000       0.558112E-003
  1528.85        500.000       0.568616E-003
  1525.64        500.000       0.579119E-003
  1522.44        500.000       0.589622E-003
  1519.23        500.000       0.600126E-003
  1516.03        500.000       0.610629E-003
  1512.82        500.000       0.621132E-003
  1509.62        500.000       0.632268E-003
  1506.41        500.000       0.643403E-003
  1503.21        500.000       0.654539E-003
  1500.00        500.000       0.665674E-003
  1496.79        500.000       0.670065E-003
  1493.59        500.000       0.672642E-003
  1490.38        500.000       0.656391E-003
  1487.18        500.000       0.640140E-003
  1483.97        500.000       0.621743E-003
  1480.77        500.000       0.603346E-003
  1477.56        500.000       0.584949E-003
  1474.36        500.000       0.566552E-003
  1471.15        500.000       0.601557E-003
  1467.95        500.000       0.670562E-003
  1464.74        500.000       0.739130E-003
  1461.54        500.000       0.807698E-003
  1458.33        500.000       0.823612E-003
  1455.13        500.000       0.836824E-003
  1451.92        500.000       0.850119E-003
  1448.72        500.000       0.862978E-003
  1445.51        500.000       0.862978E-003
  1442.31        500.000       0.862978E-003
  1439.10        500.000       0.862978E-003
  1435.90        500.000       0.911149E-003
  1432.69        500.000       0.911149E-003
  1429.49        500.000       0.911149E-003
  1426.28        500.000       0.911149E-003
  1423.08        500.000       0.911149E-003
  1419.87        500.000       0.911149E-003
  1416.67        500.000       0.911149E-003
  1413.46        500.000       0.911149E-003
  1410.26        500.000       0.102308E-002
  1407.05        500.000       0.102308E-002
  1403.85        500.000       0.105518E-002
  1400.64        500.000       0.106767E-002
  1397.44        500.000       0.106697E-002
  1394.23        500.000       0.106697E-002
  1391.03        500.000       0.106697E-002
  1387.82        500.000       0.106697E-002
  1384.62        500.000       0.106565E-002
  1381.41        500.000       0.106565E-002
  1378.21        500.000       0.106565E-002
  1375.00        500.000       0.106565E-002
  1371.79        500.000       0.106565E-002
  1368.59        500.000       0.106565E-002
  1365.38        500.000       0.106565E-002
  1362.18        500.000       0.106565E-002
  1358.97        500.000       0.106615E-002
  1355.77        500.000       0.106615E-002
  1352.56        500.000       0.106615E-002
  1349.36        500.000       0.106615E-002
  1346.15        500.000       0.106615E-002
  1342.95        500.000       0.106615E-002
  1339.74        500.000       0.106615E-002
  1336.54        500.000       0.106615E-002
  1333.33        500.000       0.106678E-002
  1330.13        500.000       0.106678E-002
  1326.92        500.000       0.106678E-002
  1323.72        500.000       0.106678E-002
  1320.51        500.000       0.106678E-002
  1317.31        500.000       0.106678E-002
  1314.10        500.000       0.106678E-002
  1310.90        500.000       0.106678E-002
  1307.69        500.000       0.106328E-002
  1304.49        500.000       0.106328E-002
  1301.28        500.000       0.106211E-002
  1298.08        500.000       0.106134E-002
  1294.87        500.000       0.105662E-002
  1291.67        500.000       0.105285E-002
  1288.46        500.000       0.105498E-002
  1285.26        500.000       0.105498E-002
  1282.05        500.000       0.105908E-002
  1278.85        500.000       0.105908E-002
  1275.64        500.000       0.105908E-002
  1272.44        500.000       0.105908E-002
  1269.23        500.000       0.105908E-002
  1266.03        500.000       0.105908E-002
  1262.82        500.000       0.105908E-002
  1259.62        500.000       0.105908E-002
  1256.41        500.000       0.107496E-002
  1253.21        500.000       0.107496E-002
  1250.00        500.000       0.107496E-002
  1246.79        500.000       0.107496E-002
  1243.59        500.000       0.107496E-002
  1240.38        500.000       0.107496E-002
  1237.18        500.000       0.107496E-002
  1233.97        500.000       0.107496E-002
  1230.77        500.000       0.108995E-002
  1227.56        500.000       0.108995E-002
  1224.36        500.000       0.108995E-002
  1221.15        500.000       0.108995E-002
  1217.95        500.000       0.108995E-002
  1214.74        500.000       0.108995E-002
  1211.54        500.000       0.108995E-002
  1208.33        500.000       0.108995E-002
  1205.13        500.000       0.110501E-002
  1201.92        500.000       0.110706E-002
  1198.72        500.000       0.109997E-002
  1195.51        500.000       0.109997E-002
  1192.31        500.000       0.108245E-002
  1189.10        500.000       0.108245E-002
  1185.90        500.000       0.108245E-002
  1182.69        500.000       0.108245E-002
  1179.49        500.000       0.105055E-002
  1176.28        500.000       0.105055E-002
  1173.08        500.000       0.105055E-002
  1169.87        500.000       0.105055E-002
  1166.67        500.000       0.105055E-002
  1163.46        500.000       0.105055E-002
  1160.26        500.000       0.105055E-002
  1157.05        500.000       0.105055E-002
  1153.85        500.000       0.100316E-002
  1150.64        500.000       0.100316E-002
  1147.44        500.000       0.100316E-002
  1144.23        500.000       0.100316E-002
  1141.03        500.000       0.100316E-002
  1137.82        500.000       0.100316E-002
  1134.62        500.000       0.100316E-002
  1131.41        500.000       0.100316E-002
  1128.21        500.000       0.961875E-003
  1125.00        500.000       0.961875E-003
  1121.79        500.000       0.961875E-003
  1118.59        500.000       0.961875E-003
  1115.38        500.000       0.961875E-003
  1112.18        500.000       0.961875E-003
  1108.97        500.000       0.961875E-003
  1105.77        500.000       0.961875E-003
  1102.56        500.000       0.931939E-003
  1099.36        500.000       0.931939E-003
  1096.15        500.000       0.931939E-003
  1092.95        500.000       0.931939E-003
  1089.74        500.000       0.931939E-003
  1086.54        500.000       0.931939E-003
  1083.33        500.000       0.931939E-003
  1080.13        500.000       0.931939E-003
  1076.92        500.000       0.911026E-003
  1073.72        500.000       0.911026E-003
  1070.51        500.000       0.911026E-003
  1067.31        500.000       0.911026E-003
  1064.10        500.000       0.911026E-003
  1060.90        500.000       0.911026E-003
  1057.69        500.000       0.911026E-003
  1054.49        500.000       0.911026E-003
  1051.28        500.000       0.895305E-003
  1048.08        500.000       0.895305E-003
  1044.87        500.000       0.892891E-003
  1041.67        500.000       0.891916E-003
  1038.46        500.000       0.890976E-003
  1035.26        500.000       0.890035E-003
  1032.05        500.000       0.889532E-003
  1028.85        500.000       0.889532E-003
  1025.64        500.000       0.888763E-003
  1022.44        500.000       0.888763E-003
  1019.23        500.000       0.888763E-003
  1016.03        500.000       0.888763E-003
  1012.82        500.000       0.888763E-003
  1009.62        500.000       0.888763E-003
  1006.41        500.000       0.888763E-003
  1003.21        500.000       0.888763E-003
  1000.00        500.000       0.889121E-003
