|6.6.6
Archiving\03_Data\eqLP/QFM_m5/TIS/TIS_6.tab                               
           1
T(K)    
  0.000000000000000E+000
  0.000000000000000E+000
           0
           3
T(K)           P(bar)         rho,kg/m3     
  2000.00        500.000        6375.67     
  1996.79        500.000        6379.48     
  1993.59        500.000        6383.27     
  1990.38        500.000        6387.06     
  1987.18        500.000        6390.82     
  1983.97        500.000        6394.57     
  1980.77        500.000        6398.31     
  1977.56        500.000        6402.03     
  1974.36        500.000        6405.74     
  1971.15        500.000        6409.34     
  1967.95        500.000        6412.92     
  1964.74        500.000        6416.49     
  1961.54        500.000        6420.04     
  1958.33        500.000        6423.59     
  1955.13        500.000        6427.12     
  1951.92        500.000        6430.64     
  1948.72        500.000        6434.14     
  1945.51        500.000        6437.54     
  1942.31        500.000        6440.93     
  1939.10        500.000        6444.31     
  1935.90        500.000        6447.67     
  1932.69        500.000        6451.03     
  1929.49        500.000        6454.37     
  1926.28        500.000        6457.71     
  1923.08        500.000        6461.03     
  1919.87        500.000        6464.25     
  1916.67        500.000        6467.46     
  1913.46        500.000        6470.67     
  1910.26        500.000        6473.86     
  1907.05        500.000        6477.04     
  1903.85        500.000        6480.22     
  1900.64        500.000        6483.38     
  1897.44        500.000        6486.54     
  1894.23        500.000        6489.60     
  1891.03        500.000        6492.65     
  1887.82        500.000        6495.70     
  1884.62        500.000        6498.74     
  1881.41        500.000        6501.76     
  1878.21        500.000        6504.78     
  1875.00        500.000        6507.79     
  1871.79        500.000        6510.80     
  1868.59        500.000        6513.71     
  1865.38        500.000        6516.62     
  1862.18        500.000        6519.52     
  1858.97        500.000        6522.42     
  1855.77        500.000        6525.30     
  1852.56        500.000        6528.18     
  1849.36        500.000        6531.05     
  1846.15        500.000        6533.91     
  1842.95        500.000        6536.70     
  1839.74        500.000        6539.47     
  1836.54        500.000        6542.24     
  1833.33        500.000        6545.00     
  1830.13        500.000        6547.76     
  1826.92        500.000        6550.51     
  1823.72        500.000        6553.25     
  1820.51        500.000        6555.98     
  1817.31        500.000        6558.64     
  1814.10        500.000        6561.29     
  1810.90        500.000        6563.94     
  1807.69        500.000        6566.58     
  1804.49        500.000        6569.21     
  1801.28        500.000        6571.84     
  1798.08        500.000        6574.46     
  1794.87        500.000        6577.08     
  1791.67        500.000        6579.62     
  1788.46        500.000        6582.16     
  1785.26        500.000        6584.69     
  1782.05        500.000        6587.22     
  1778.85        500.000        6589.74     
  1775.64        500.000        6592.26     
  1772.44        500.000        6594.77     
  1769.23        500.000        6597.28     
  1766.03        500.000        6599.71     
  1762.82        500.000        6602.15     
  1759.62        500.000        6604.57     
  1756.41        500.000        6607.00     
  1753.21        500.000        6609.42     
  1750.00        500.000        6611.83     
  1746.79        500.000        6614.24     
  1743.59        500.000        6616.64     
  1740.38        500.000        6618.98     
  1737.18        500.000        6621.31     
  1733.97        500.000        6623.64     
  1730.77        500.000        6625.97     
  1727.56        500.000        6628.29     
  1724.36        500.000        6630.60     
  1721.15        500.000        6632.92     
  1717.95        500.000        6635.22     
  1714.74        500.000        6637.47     
  1711.54        500.000        6639.71     
  1708.33        500.000        6641.95     
  1705.13        500.000        6644.18     
  1701.92        500.000        6646.41     
  1698.72        500.000        6648.64     
  1695.51        500.000        6650.86     
  1692.31        500.000        6653.08     
  1689.10        500.000        6655.23     
  1685.90        500.000        6657.39     
  1682.69        500.000        6659.54     
  1679.49        500.000        6661.69     
  1676.28        500.000        6663.83     
  1673.08        500.000        6665.97     
  1669.87        500.000        6668.11     
  1666.67        500.000        6670.24     
  1663.46        500.000        6672.31     
  1660.26        500.000        6674.39     
  1657.05        500.000        6676.45     
  1653.85        500.000        6678.52     
  1650.64        500.000        6680.58     
  1647.44        500.000        6682.64     
  1644.23        500.000        6684.70     
  1641.03        500.000        6686.75     
  1637.82        500.000        6688.76     
  1634.62        500.000        6690.77     
  1631.41        500.000        6692.77     
  1628.21        500.000        6694.78     
  1625.00        500.000        6694.58     
  1621.79        500.000        6690.80     
  1618.59        500.000        6687.13     
  1615.38        500.000        6683.49     
  1612.18        500.000        6679.95     
  1608.97        500.000        6676.44     
  1605.77        500.000        6673.02     
  1602.56        500.000        6628.99     
  1599.36        500.000        6195.43     
  1596.15        500.000        5858.44     
  1592.95        500.000        5589.00     
  1589.74        500.000        5368.67     
  1586.54        500.000        5189.50     
  1583.33        500.000        5037.37     
  1580.13        500.000        4906.62     
  1576.92        500.000        4793.04     
  1573.72        500.000        4695.43     
  1570.51        500.000        4589.98     
  1567.31        500.000        4428.00     
  1564.10        500.000        4300.27     
  1560.90        500.000        4208.59     
  1557.69        500.000        4131.33     
  1554.49        500.000        4065.34     
  1551.28        500.000        4008.35     
  1548.08        500.000        3958.64     
  1544.87        500.000        3914.90     
  1541.67        500.000        3876.14     
  1538.46        500.000        3841.55     
  1535.26        500.000        3813.77     
  1532.05        500.000        3788.45     
  1528.85        500.000        3765.99     
  1525.64        500.000        3747.57     
  1522.44        500.000        3731.13     
  1519.23        500.000        3715.75     
  1516.03        500.000        3701.34     
  1512.82        500.000        3687.80     
  1509.62        500.000        3675.87     
  1506.41        500.000        3664.59     
  1503.21        500.000        3653.91     
  1500.00        500.000        3643.78     
  1496.79        500.000        3631.14     
  1493.59        500.000        3613.30     
  1490.38        500.000        3613.80     
  1487.18        500.000        3584.17     
  1483.97        500.000        3584.66     
  1480.77        500.000        3585.15     
  1477.56        500.000        3585.64     
  1474.36        500.000        3586.13     
  1471.15        500.000        3586.62     
  1467.95        500.000        3587.11     
  1464.74        500.000        3587.60     
  1461.54        500.000        3521.64     
  1458.33        500.000        3522.11     
  1455.13        500.000        3522.59     
  1451.92        500.000        3523.07     
  1448.72        500.000        3523.54     
  1445.51        500.000        3524.02     
  1442.31        500.000        3524.49     
  1439.10        500.000        3524.97     
  1435.90        500.000        3494.75     
  1432.69        500.000        3492.46     
  1429.49        500.000        3482.47     
  1426.28        500.000        3473.11     
  1423.08        500.000        3465.00     
  1419.87        500.000        3465.45     
  1416.67        500.000        3465.91     
  1413.46        500.000        3466.37     
  1410.26        500.000        3440.80     
  1407.05        500.000        3441.25     
  1403.85        500.000        3441.70     
  1400.64        500.000        3442.14     
  1397.44        500.000        3442.59     
  1394.23        500.000        3443.03     
  1391.03        500.000        3443.48     
  1387.82        500.000        3443.92     
  1384.62        500.000        3410.21     
  1381.41        500.000        3410.64     
  1378.21        500.000        3411.08     
  1375.00        500.000        3411.51     
  1371.79        500.000        3411.94     
  1368.59        500.000        3412.37     
  1365.38        500.000        3412.81     
  1362.18        500.000        3413.24     
  1358.97        500.000        3387.45     
  1355.77        500.000        3387.88     
  1352.56        500.000        3388.30     
  1349.36        500.000        3388.72     
  1346.15        500.000        3376.87     
  1342.95        500.000        3377.29     
  1339.74        500.000        3371.59     
  1336.54        500.000        3368.93     
  1333.33        500.000        3366.28     
  1330.13        500.000        3366.69     
  1326.92        500.000        3360.91     
  1323.72        500.000        3358.84     
  1320.51        500.000        3356.94     
  1317.31        500.000        3357.34     
  1314.10        500.000        3357.75     
  1310.90        500.000        3358.16     
  1307.69        500.000        3349.37     
  1304.49        500.000        3347.49     
  1301.28        500.000        3335.62     
  1298.08        500.000        3336.02     
  1294.87        500.000        3333.49     
  1291.67        500.000        3333.23     
  1288.46        500.000        3333.47     
  1285.26        500.000        3333.87     
  1282.05        500.000        3333.96     
  1278.85        500.000        3334.36     
  1275.64        500.000        3334.76     
  1272.44        500.000        3335.16     
  1269.23        500.000        3335.55     
  1266.03        500.000        3335.95     
  1262.82        500.000        3336.35     
  1259.62        500.000        3336.75     
  1256.41        500.000        3335.95     
  1253.21        500.000        3336.35     
  1250.00        500.000        3336.75     
  1246.79        500.000        3337.15     
  1243.59        500.000        3337.54     
  1240.38        500.000        3337.94     
  1237.18        500.000        3338.33     
  1233.97        500.000        3338.73     
  1230.77        500.000        3338.03     
  1227.56        500.000        3338.42     
  1224.36        500.000        3338.56     
  1221.15        500.000        3338.82     
  1217.95        500.000        3339.12     
  1214.74        500.000        3339.51     
  1211.54        500.000        3339.90     
  1208.33        500.000        3340.30     
  1205.13        500.000        3340.57     
  1201.92        500.000        3340.96     
  1198.72        500.000        3341.35     
  1195.51        500.000        3341.74     
  1192.31        500.000        3342.14     
  1189.10        500.000        3342.53     
  1185.90        500.000        3342.92     
  1182.69        500.000        3343.31     
  1179.49        500.000        3343.50     
  1176.28        500.000        3343.89     
  1173.08        500.000        3344.28     
  1169.87        500.000        3344.67     
  1166.67        500.000        3345.06     
  1163.46        500.000        3345.45     
  1160.26        500.000        3345.84     
  1157.05        500.000        3346.23     
  1153.85        500.000        3346.48     
  1150.64        500.000        3346.87     
  1147.44        500.000        3347.26     
  1144.23        500.000        3347.65     
  1141.03        500.000        3348.03     
  1137.82        500.000        3348.42     
  1134.62        500.000        3348.81     
  1131.41        500.000        3349.19     
  1128.21        500.000        3349.49     
  1125.00        500.000        3349.87     
  1121.79        500.000        3350.26     
  1118.59        500.000        3350.64     
  1115.38        500.000        3351.00     
  1112.18        500.000        3351.39     
  1108.97        500.000        3351.76     
  1105.77        500.000        3352.13     
  1102.56        500.000        3352.51     
  1099.36        500.000        3352.89     
  1096.15        500.000        3353.28     
  1092.95        500.000        3353.66     
  1089.74        500.000        3354.05     
  1086.54        500.000        3354.43     
  1083.33        500.000        3354.81     
  1080.13        500.000        3355.20     
  1076.92        500.000        3355.53     
  1073.72        500.000        3355.92     
  1070.51        500.000        3356.30     
  1067.31        500.000        3356.68     
  1064.10        500.000        3357.06     
  1060.90        500.000        3357.44     
  1057.69        500.000        3357.83     
  1054.49        500.000        3358.21     
  1051.28        500.000        3358.55     
  1048.08        500.000        3358.93     
  1044.87        500.000        3359.31     
  1041.67        500.000        3359.69     
  1038.46        500.000        3360.07     
  1035.26        500.000        3360.45     
  1032.05        500.000        3360.83     
  1028.85        500.000        3361.21     
  1025.64        500.000        3361.56     
  1022.44        500.000        3361.94     
  1019.23        500.000        3362.32     
  1016.03        500.000        3362.70     
  1012.82        500.000        3363.07     
  1009.62        500.000        3363.45     
  1006.41        500.000        3363.83     
  1003.21        500.000        3364.21     
  1000.00        500.000        3364.56     
